# wavelength flux
3402.13761 -4.37248e-16
3406.87034 8.81592e-16
3411.60306 -3.02732e-16
3416.33578 -3.70348e-16
3421.06851 1.92781e-16
3425.80123 6.01863e-16
3430.53396 7.67338e-16
3435.26668 5.47620e-16
3439.99941 -4.42143e-16
3444.73213 5.40667e-17
3449.46486 -3.84711e-16
3454.19758 3.49328e-16
3458.93030 3.20643e-16
3463.66303 -3.43211e-16
3468.39576 -2.69848e-16
3473.12848 1.06185e-15
3477.86120 9.66090e-16
3482.59393 7.60031e-16
3487.32665 5.97215e-16
3492.05938 7.16522e-16
3496.79210 2.55895e-16
3501.52483 -1.67319e-16
3506.25755 9.51101e-17
3510.99028 -5.28503e-17
3515.72300 2.07407e-16
3520.45572 3.84069e-16
3525.18845 1.37953e-16
3529.92117 -1.60260e-16
3534.65390 -3.11190e-16
3539.38662 5.58154e-16
3544.11935 6.64244e-16
3548.85207 1.42132e-16
3553.58480 -3.26058e-16
3558.31752 5.88790e-16
3563.05025 8.43047e-16
3567.78297 9.21713e-16
3572.51570 7.71895e-17
3577.24842 1.98220e-16
3581.98115 2.16403e-16
3586.71387 7.34775e-17
3591.44659 2.17384e-16
3596.17932 3.48885e-16
3600.91204 4.40827e-16
3605.64477 3.61938e-17
3610.37749 1.45862e-16
3615.11022 -9.16563e-17
3619.84294 1.96844e-16
3624.57567 3.48128e-17
3629.30839 5.51577e-17
3634.04111 4.68624e-16
3638.77384 7.38524e-16
3643.50656 -3.38750e-16
3648.23929 3.66389e-16
3652.97201 4.00348e-16
3657.70474 7.19937e-17
3662.43746 1.69503e-16
3667.17019 -1.04518e-17
3671.90291 3.19687e-16
3676.63564 1.22648e-16
3681.36836 4.56406e-17
3686.10108 1.35674e-16
3690.83381 3.71161e-16
3695.56653 3.84213e-16
3700.29926 1.65638e-16
3705.03198 1.82777e-16
3709.76471 1.34214e-16
3714.49743 1.12398e-16
3719.23016 2.39402e-16
3723.96288 5.05494e-16
3728.69561 1.95686e-16
3733.42833 2.44901e-16
3738.16106 1.18225e-16
3742.89378 1.67775e-16
3747.62651 2.70073e-16
3752.35923 -1.06921e-17
3757.09195 2.22319e-16
3761.82468 3.95701e-16
3766.55740 3.62629e-16
3771.29013 3.28451e-16
3776.02285 3.36477e-16
3780.75558 2.99425e-16
3785.48830 3.74304e-16
3790.22103 9.26617e-17
3794.95375 3.49604e-16
3799.68647 4.08357e-16
3804.41920 1.80513e-16
3809.15192 3.47776e-16
3813.88465 3.55513e-16
3818.61737 1.30690e-16
3823.35010 2.43601e-16
3828.08282 3.13447e-16
3832.81555 3.60769e-16
3837.54827 3.03969e-16
3842.28100 4.85044e-16
3847.01372 3.29510e-16
3851.74645 4.06177e-16
3856.47917 4.07785e-16
3861.21189 4.06454e-16
3865.94462 2.01606e-16
3870.67734 2.90221e-16
3875.41007 2.18841e-16
3880.14279 3.12378e-16
3884.87552 4.75726e-16
3889.60824 4.97572e-16
3894.34097 1.36072e-16
3899.07369 2.15857e-16
3903.80642 3.30504e-16
3908.53914 3.53131e-16
3913.27187 4.51298e-16
3918.00459 4.01556e-16
3922.73731 3.54441e-16
3927.47004 4.07154e-16
3932.20276 4.29945e-16
3936.93549 2.67980e-16
3941.66821 2.62208e-16
3946.40094 2.43978e-16
3951.13366 4.13693e-16
3955.86639 4.65017e-16
3960.59911 3.23221e-16
3965.33183 5.26007e-16
3970.06456 2.86839e-16
3974.79729 2.58933e-16
3979.53001 3.10997e-16
3984.26273 3.33748e-16
3988.99546 3.00066e-16
3993.72818 4.87128e-16
3998.46091 5.18322e-16
4003.19363 4.03940e-16
4007.92636 4.61400e-16
4012.65908 2.75750e-16
4017.39181 1.84810e-16
4022.12453 2.90133e-16
4026.85725 4.64423e-16
4031.58998 4.36897e-16
4036.32270 3.06359e-16
4041.05543 4.93979e-16
4045.78815 5.59241e-16
4050.52088 4.58180e-16
4055.25360 4.32567e-16
4059.98633 5.08314e-16
4064.71905 4.83793e-16
4069.45178 3.54282e-16
4074.18450 4.91905e-16
4078.91723 3.66953e-16
4083.64995 4.38962e-16
4088.38267 4.76523e-16
4093.11540 4.32081e-16
4097.84812 4.26505e-16
4102.58085 4.58393e-16
4107.31357 3.69221e-16
4112.04630 3.56773e-16
4116.77902 4.93415e-16
4121.51175 5.58375e-16
4126.24447 4.27430e-16
4130.97720 4.57133e-16
4135.70992 4.63928e-16
4140.44265 6.13994e-16
4145.17537 3.50863e-16
4149.90809 3.92107e-16
4154.64082 2.25601e-16
4159.37354 3.62449e-16
4164.10627 4.77696e-16
4168.83899 3.69223e-16
4173.57172 3.64919e-16
4178.30444 3.40702e-16
4183.03717 5.32542e-16
4187.76989 4.99847e-16
4192.50262 4.46285e-16
4197.23534 4.65878e-16
4201.96806 5.10057e-16
4206.70079 5.03392e-16
4211.43351 5.27342e-16
4216.16624 4.87989e-16
4220.89896 6.97838e-16
4225.63169 5.93681e-16
4230.36441 5.14069e-16
4235.09714 5.48014e-16
4239.82986 4.76308e-16
4244.56259 3.96803e-16
4249.29531 3.64176e-16
4254.02804 5.83753e-16
4258.76076 5.36065e-16
4263.49348 3.51032e-16
4268.22621 5.09476e-16
4272.95893 5.30162e-16
4277.69166 6.46867e-16
4282.42438 6.81913e-16
4287.15711 5.45366e-16
4291.88983 4.88133e-16
4296.62256 4.46339e-16
4301.35528 4.72293e-16
4306.08800 5.97098e-16
4310.82073 5.83073e-16
4315.55345 5.22793e-16
4320.28618 4.71776e-16
4325.01890 5.77060e-16
4329.75163 5.67446e-16
4334.48435 5.56765e-16
4339.21708 5.36363e-16
4343.94980 3.30283e-16
4348.68253 4.24576e-16
4353.41525 5.35402e-16
4358.14797 5.62945e-16
4362.88070 4.55750e-16
4367.61342 6.09376e-16
4372.34615 5.12041e-16
4377.07887 5.24916e-16
4381.81160 4.93543e-16
4386.54432 5.64361e-16
4391.27705 5.52407e-16
4396.00977 4.43038e-16
4400.74250 4.30261e-16
4405.47522 4.72494e-16
4410.20795 5.09284e-16
4414.94067 4.73798e-16
4419.67339 4.99512e-16
4424.40612 5.09335e-16
4429.13884 7.06286e-16
4433.87157 7.79658e-16
4438.60429 6.54021e-16
4443.33702 5.22971e-16
4448.06974 5.68150e-16
4452.80247 5.49718e-16
4457.53519 5.66047e-16
4462.26792 4.16634e-16
4467.00064 4.85605e-16
4471.73337 5.62893e-16
4476.46609 5.72808e-16
4481.19881 4.83179e-16
4485.93154 3.88220e-16
4490.66426 5.87248e-16
4495.39699 6.08289e-16
4500.12971 5.33752e-16
4504.86244 6.19088e-16
4509.59516 4.99692e-16
4514.32789 4.34070e-16
4519.06061 6.93500e-16
4523.79334 4.46389e-16
4528.52606 3.75551e-16
4533.25878 5.92465e-16
4537.99151 5.48245e-16
4542.72423 6.50174e-16
4547.45696 5.13261e-16
4552.18968 5.13373e-16
4556.92241 4.89754e-16
4561.65513 4.96163e-16
4566.38786 5.83273e-16
4571.12058 5.69216e-16
4575.85331 5.61459e-16
4580.58603 5.35941e-16
4585.31876 5.16258e-16
4590.05148 6.78580e-16
4594.78420 6.08783e-16
4599.51693 4.07994e-16
4604.24965 4.64225e-16
4608.98238 5.17844e-16
4613.71510 5.28635e-16
4618.44783 5.25923e-16
4623.18055 5.89470e-16
4627.91328 4.98019e-16
4632.64600 5.60043e-16
4637.37873 5.29162e-16
4642.11145 5.26319e-16
4646.84418 5.56623e-16
4651.57690 5.34793e-16
4656.30962 4.71032e-16
4661.04235 5.09452e-16
4665.77507 5.21505e-16
4670.50780 6.17669e-16
4675.24052 5.40294e-16
4679.97325 5.59869e-16
4684.70597 6.70410e-16
4689.43870 6.46625e-16
4694.17142 5.61617e-16
4698.90415 5.11127e-16
4703.63687 6.52166e-16
4708.36959 5.99619e-16
4713.10232 6.84194e-16
4717.83504 6.12550e-16
4722.56777 4.51968e-16
4727.30049 5.88850e-16
4732.03322 6.14402e-16
4736.76594 4.81952e-16
4741.49867 5.89035e-16
4746.23139 6.64347e-16
4750.96412 6.79567e-16
4755.69684 6.12573e-16
4760.42957 5.58928e-16
4765.16229 6.80413e-16
4769.89501 6.57397e-16
4774.62774 6.67024e-16
4779.36046 5.64462e-16
4784.09319 5.51954e-16
4788.82591 6.32655e-16
4793.55864 5.76053e-16
4798.29136 6.04337e-16
4803.02409 5.95142e-16
4807.75681 5.70413e-16
4812.48953 5.82932e-16
4817.22226 6.73358e-16
4821.95498 7.04960e-16
4826.68771 6.05621e-16
4831.42043 5.31556e-16
4836.15316 5.40541e-16
4840.88588 4.67983e-16
4845.61861 5.82517e-16
4850.35133 6.68180e-16
4855.08406 6.77792e-16
4859.81678 5.91274e-16
4864.54950 6.08958e-16
4869.28223 6.19263e-16
4874.01495 5.64403e-16
4878.74768 5.66510e-16
4883.48040 5.94611e-16
4888.21313 6.62853e-16
4892.94585 6.33135e-16
4897.67858 5.77185e-16
4902.41130 5.51007e-16
4907.14403 5.66680e-16
4911.87675 5.66890e-16
4916.60948 6.55578e-16
4921.34220 6.70659e-16
4926.07492 6.63262e-16
4930.80765 7.07326e-16
4935.54037 6.15582e-16
4940.27310 5.81285e-16
4945.00582 5.56158e-16
4949.73855 6.22939e-16
4954.47127 5.88874e-16
4959.20400 5.68778e-16
4963.93672 5.48106e-16
4968.66945 6.65113e-16
4973.40217 7.98692e-16
4978.13490 6.12068e-16
4982.86762 5.47007e-16
4987.60034 5.75185e-16
4992.33307 6.42364e-16
4997.06579 6.89099e-16
5001.79852 7.09387e-16
5006.53124 7.06423e-16
5011.26397 6.57151e-16
5015.99669 6.70987e-16
5020.72942 6.94441e-16
5025.46214 6.70682e-16
5030.19487 6.77604e-16
5034.92759 6.60580e-16
5039.66032 6.53855e-16
5044.39304 6.83714e-16
5049.12576 6.63369e-16
5053.85849 6.54109e-16
5058.59121 7.19599e-16
5063.32394 7.73598e-16
5068.05666 7.84296e-16
5072.78939 7.04162e-16
5077.52211 7.78620e-16
5082.25484 8.02907e-16
5086.98756 7.86827e-16
5091.72029 8.56128e-16
5096.45301 8.16544e-16
5101.18573 6.39382e-16
5105.91846 6.76244e-16
5110.65118 8.19935e-16
5115.38391 7.26055e-16
5120.11663 7.46238e-16
5124.84936 7.06795e-16
5129.58208 5.97201e-16
5134.31481 6.63517e-16
5139.04753 6.88092e-16
5143.78026 6.86531e-16
5148.51298 7.24545e-16
5153.24571 7.01007e-16
5157.97843 7.06144e-16
5162.71115 7.75174e-16
5167.44388 6.78685e-16
5172.17660 7.06316e-16
5176.90933 7.50034e-16
5181.64205 6.46965e-16
5186.37478 7.37724e-16
5191.10750 7.96519e-16
5195.84023 7.24488e-16
5200.57295 6.48396e-16
5205.30567 7.37640e-16
5210.03840 7.02186e-16
5214.77112 7.34304e-16
5219.50385 6.87525e-16
5224.23657 6.35248e-16
5228.96930 6.18407e-16
5233.70202 6.86759e-16
5238.43475 6.62752e-16
5243.16747 6.75625e-16
5247.90020 7.14680e-16
5252.63292 6.67297e-16
5257.36564 7.57582e-16
5262.09837 8.28313e-16
5266.83109 6.92516e-16
5271.56382 6.30557e-16
5276.29654 7.51342e-16
5281.02927 7.26159e-16
5285.76199 7.87648e-16
5290.49472 6.56349e-16
5295.22744 6.58764e-16
5299.96017 7.65232e-16
5304.69289 6.24878e-16
5309.42562 6.62258e-16
5314.15834 7.71583e-16
5318.89106 7.18093e-16
5323.62379 6.78618e-16
5328.35651 7.40978e-16
5333.08924 8.00173e-16
5337.82196 7.24832e-16
5342.55469 7.96677e-16
5347.28741 6.46529e-16
5352.02014 7.79786e-16
5356.75286 7.50202e-16
5361.48559 6.87136e-16
5366.21831 7.43259e-16
5370.95104 6.81443e-16
5375.68376 8.25014e-16
5380.41648 1.07032e-15
5385.14921 9.20138e-16
5389.88193 7.69107e-16
5394.61466 7.84892e-16
5399.34738 7.28521e-16
5404.08011 6.70593e-16
5408.81283 7.44763e-16
5413.54556 7.84240e-16
5418.27828 6.65034e-16
5423.01101 7.33904e-16
5427.74373 7.25819e-16
5432.47645 7.66608e-16
5437.20918 8.54947e-16
5441.94190 8.02352e-16
5446.67463 7.53921e-16
5451.40735 7.56999e-16
5456.14008 8.91791e-16
5460.87280 7.45467e-16
5465.60553 6.31690e-16
5470.33825 7.49603e-16
5475.07098 7.92019e-16
5479.80370 7.59295e-16
5484.53643 7.91458e-16
5489.26915 8.25390e-16
5494.00187 7.34352e-16
5498.73460 6.83996e-16
5503.46732 7.16753e-16
5508.20005 7.90115e-16
5512.93277 7.46705e-16
5517.66550 7.17309e-16
5522.39822 8.37387e-16
5527.13095 8.10952e-16
5531.86367 7.71196e-16
5536.59640 8.03497e-16
5541.32912 7.78426e-16
5546.06185 8.05693e-16
5550.79457 8.28515e-16
5555.52729 8.23667e-16
5560.26002 9.08054e-16
5564.99274 8.24222e-16
5569.72547 7.25362e-16
5574.45819 8.45640e-16
5579.19092 8.84690e-16
5583.92364 8.56359e-16
5588.65637 7.92034e-16
5593.38909 9.14980e-16
5598.12182 7.40197e-16
5602.85454 7.64390e-16
5607.58726 7.01524e-16
5612.31999 7.54495e-16
5617.05271 8.54711e-16
5621.78544 8.58123e-16
5626.51816 7.88116e-16
5631.25089 7.51650e-16
5635.98361 8.49748e-16
5640.71634 8.49936e-16
5645.44906 8.31998e-16
5650.18179 8.97621e-16
5654.91451 9.14489e-16
5659.64724 9.43770e-16
5664.37996 9.49748e-16
5669.11268 8.64549e-16
5673.84541 8.15255e-16
5678.57813 7.93177e-16
5683.31086 7.96673e-16
5688.04358 8.77960e-16
5692.77631 9.47701e-16
5697.50903 9.53219e-16
5702.24176 9.00032e-16
5706.97448 8.09040e-16
5711.70720 8.19869e-16
5716.43993 8.60196e-16
5721.17265 8.02346e-16
5725.90538 8.96159e-16
5730.63810 8.48605e-16
5735.37083 8.77355e-16
5740.10355 8.43317e-16
5744.83628 7.85923e-16
5749.56900 8.27292e-16
5754.30173 1.02828e-15
5759.03445 9.82984e-16
5763.76717 9.45201e-16
5768.49990 9.39577e-16
5773.23262 9.89852e-16
5777.96535 8.78338e-16
5782.69807 9.00951e-16
5787.43080 9.36096e-16
5792.16352 8.78351e-16
5796.89625 8.93859e-16
5801.62897 9.54424e-16
5806.36170 9.79992e-16
5811.09442 9.16478e-16
5815.82715 8.52396e-16
5820.55987 8.05357e-16
5825.29259 7.67927e-16
5830.02532 9.54269e-16
5834.75804 1.05821e-15
5839.49077 9.74926e-16
5844.22349 9.35993e-16
5848.95622 7.17859e-16
5853.68894 6.66465e-16
5858.42167 8.94961e-16
5863.15439 9.22150e-16
5867.88712 7.66214e-16
5872.61984 8.32190e-16
5877.35257 9.30058e-16
5882.08529 6.65162e-16
5886.81801 6.87250e-16
5891.55074 7.85151e-16
5896.28346 7.80867e-16
5901.01619 8.04099e-16
5905.74891 8.19129e-16
5910.48164 8.33363e-16
5915.21436 9.07303e-16
5919.94709 9.65216e-16
5924.67981 8.56732e-16
5929.41254 7.13383e-16
5934.14526 6.74110e-16
5938.87799 8.42414e-16
5943.61071 9.05256e-16
5948.34343 9.41428e-16
5953.07616 1.09852e-15
5957.80888 1.12182e-15
5962.54161 8.86484e-16
5967.27433 6.39818e-16
5972.00706 4.24136e-16
5976.73978 5.12461e-16
5981.47251 7.55412e-16
5986.20523 8.45193e-16
5990.93796 8.45428e-16
5995.67068 8.63230e-16
6000.40340 9.15700e-16
6005.13613 1.02186e-15
6009.86885 1.07092e-15
6014.60158 9.60383e-16
6019.33430 8.75589e-16
6024.06703 9.47947e-16
6028.79975 9.61785e-16
6033.53248 8.55927e-16
6038.26520 8.40970e-16
6042.99793 8.89533e-16
6047.73065 7.31520e-16
6052.46338 7.89136e-16
6057.19610 8.59265e-16
6061.92882 8.57011e-16
6066.66155 9.06424e-16
6071.39427 9.78862e-16
6076.12700 8.66859e-16
6080.85972 8.22637e-16
6085.59245 8.57203e-16
6090.32517 8.36538e-16
6095.05790 7.73890e-16
6099.79062 8.31070e-16
6104.52334 8.72342e-16
6109.25607 7.32074e-16
6113.98879 7.49334e-16
6118.72152 8.56578e-16
6123.45424 8.48682e-16
6128.18697 8.13244e-16
6132.91969 7.96863e-16
6137.65242 7.63124e-16
6142.38514 8.10998e-16
6147.11787 8.40519e-16
6151.85059 7.50499e-16
6156.58331 7.76694e-16
6161.31604 7.63011e-16
6166.04876 8.48383e-16
6170.78149 9.54074e-16
6175.51421 8.98658e-16
6180.24694 8.51905e-16
6184.97966 8.33699e-16
6189.71239 7.21756e-16
6194.44511 6.63107e-16
6199.17784 7.48858e-16
6203.91056 8.63151e-16
6208.64329 9.08001e-16
6213.37601 7.99376e-16
6218.10873 7.74054e-16
6222.84146 7.95042e-16
6227.57418 7.65676e-16
6232.30691 8.51972e-16
6237.03963 7.76813e-16
6241.77236 8.48583e-16
6246.50508 8.99438e-16
6251.23781 7.84264e-16
6255.97053 8.31833e-16
6260.70326 8.57936e-16
6265.43598 8.41420e-16
6270.16871 8.05776e-16
6274.90143 7.24640e-16
6279.63415 7.38075e-16
6284.36688 7.32099e-16
6289.09960 7.72332e-16
6293.83233 7.87031e-16
6298.56505 7.80599e-16
6303.29778 6.51721e-16
6308.03050 8.33450e-16
6312.76323 8.67185e-16
6317.49595 6.94463e-16
6322.22868 6.78390e-16
6326.96140 7.46823e-16
6331.69412 7.96768e-16
6336.42685 8.10635e-16
6341.15957 7.97320e-16
6345.89230 7.74398e-16
6350.62502 7.56407e-16
6355.35775 7.28801e-16
6360.09047 7.40605e-16
6364.82320 8.06085e-16
6369.55592 7.60422e-16
6374.28865 7.22176e-16
6379.02137 8.41767e-16
6383.75410 8.54173e-16
6388.48682 7.09543e-16
6393.21954 7.43235e-16
6397.95227 7.38716e-16
6402.68499 7.39150e-16
6407.41772 7.87715e-16
6412.15044 8.01736e-16
6416.88317 8.03534e-16
6421.61589 8.18846e-16
6426.34862 7.81572e-16
6431.08134 7.67063e-16
6435.81407 7.99184e-16
6440.54679 7.40227e-16
6445.27952 6.81942e-16
6450.01224 6.75146e-16
6454.74496 6.53005e-16
6459.47769 7.29884e-16
6464.21041 7.76605e-16
6468.94314 7.01971e-16
6473.67586 7.32551e-16
6478.40859 7.84682e-16
6483.14131 8.03843e-16
6487.87404 7.56344e-16
6492.60676 6.53262e-16
6497.33949 6.84274e-16
6502.07221 6.49026e-16
6506.80493 6.50616e-16
6511.53766 7.79683e-16
6516.27038 7.53716e-16
6521.00311 7.95542e-16
6525.73583 7.27945e-16
6530.46856 7.54816e-16
6535.20128 7.66518e-16
6539.93401 7.92249e-16
6544.66673 7.00216e-16
6549.39945 7.28191e-16
6554.13218 7.15706e-16
6558.86491 6.63482e-16
6563.59763 7.85133e-16
6568.33035 8.20842e-16
6573.06308 7.74600e-16
6577.79580 7.80560e-16
6582.52853 7.18945e-16
6587.26125 7.51407e-16
6591.99398 9.02511e-16
6596.72670 8.55093e-16
6601.45943 8.22366e-16
6606.19215 8.27535e-16
6610.92487 7.15039e-16
6615.65760 8.02769e-16
6620.39032 7.86435e-16
6625.12305 7.74466e-16
6629.85577 8.35229e-16
6634.58850 8.53862e-16
6639.32122 8.47954e-16
6644.05395 1.05197e-15
6648.78667 1.32591e-15
6653.51940 1.23503e-15
6658.25212 9.20722e-16
6662.98484 8.55705e-16
6667.71757 9.47685e-16
6672.45029 9.36562e-16
6677.18302 8.82133e-16
6681.91574 7.48964e-16
6686.64847 6.94011e-16
6691.38119 7.83868e-16
6696.11392 8.34555e-16
6700.84664 8.48802e-16
6705.57937 7.86379e-16
6710.31209 7.71672e-16
6715.04482 8.15385e-16
6719.77754 8.60349e-16
6724.51026 8.75279e-16
6729.24299 8.08842e-16
6733.97571 7.52308e-16
6738.70844 7.74002e-16
6743.44116 7.88384e-16
6748.17389 7.32634e-16
6752.90661 7.39990e-16
6757.63934 8.60954e-16
6762.37206 8.36350e-16
6767.10479 7.89280e-16
6771.83751 8.27971e-16
6776.57024 8.61337e-16
6781.30296 8.91618e-16
6786.03568 8.00266e-16
6790.76841 7.57064e-16
6795.50113 7.81447e-16
6800.23386 7.16193e-16
6804.96658 8.26101e-16
6809.69931 8.93547e-16
6814.43203 8.44498e-16
6819.16476 8.87858e-16
6823.89748 8.04028e-16
6828.63021 7.22208e-16
6833.36293 6.92474e-16
6838.09566 7.56715e-16
6842.82838 7.45982e-16
6847.56110 6.85728e-16
6852.29383 6.60852e-16
6857.02655 7.50569e-16
6861.75928 8.29101e-16
6866.49200 7.11515e-16
6871.22473 6.25121e-16
6875.95745 7.26406e-16
6880.69018 7.50118e-16
6885.42290 7.32600e-16
6890.15563 6.82938e-16
6894.88835 6.55692e-16
6899.62107 7.15641e-16
6904.35380 7.82735e-16
6909.08652 8.03943e-16
6913.81925 7.79743e-16
6918.55197 7.21366e-16
6923.28470 7.59129e-16
6928.01742 7.41847e-16
6932.75015 6.37207e-16
6937.48287 7.06968e-16
6942.21560 7.05258e-16
6946.94832 6.06321e-16
6951.68105 7.26482e-16
6956.41377 8.15595e-16
6961.14649 8.21596e-16
6965.87922 6.88641e-16
6970.61194 6.53986e-16
6975.34467 6.36216e-16
6980.07739 6.89994e-16
6984.81012 6.55355e-16
6989.54284 6.23365e-16
6994.27557 7.22646e-16
6999.00829 7.30124e-16
7003.74101 6.68150e-16
7008.47374 6.92578e-16
7013.20646 7.15552e-16
7017.93919 6.71102e-16
7022.67191 7.27417e-16
7027.40464 7.39056e-16
7032.13736 7.80230e-16
7036.87009 8.17232e-16
7041.60281 7.25993e-16
7046.33554 7.26612e-16
7051.06826 6.91281e-16
7055.80098 7.14987e-16
7060.53371 8.08498e-16
7065.26643 7.20947e-16
7069.99916 6.71338e-16
7074.73188 6.92944e-16
7079.46461 6.45695e-16
7084.19733 6.52582e-16
7088.93006 7.10924e-16
7093.66278 6.94193e-16
7098.39551 7.00551e-16
7103.12823 6.95160e-16
7107.86096 7.19027e-16
7112.59368 7.44975e-16
7117.32640 7.84128e-16
7122.05913 7.83514e-16
7126.79185 7.41310e-16
7131.52458 7.27734e-16
7136.25730 7.19097e-16
7140.99003 7.37864e-16
7145.72275 6.88696e-16
7150.45548 7.13281e-16
7155.18820 6.87050e-16
7159.92093 8.25374e-16
7164.65365 7.89735e-16
7169.38638 7.68780e-16
7174.11910 8.14398e-16
7178.85182 6.63410e-16
7183.58455 6.35754e-16
7188.31727 7.32916e-16
7193.05000 6.72795e-16
7197.78272 7.04823e-16
7202.51545 7.81090e-16
7207.24817 6.99771e-16
7211.98090 5.57379e-16
7216.71362 6.37595e-16
7221.44635 6.97233e-16
7226.17907 6.46368e-16
7230.91179 6.85159e-16
7235.64452 6.94961e-16
7240.37724 6.12698e-16
7245.10997 5.91436e-16
7249.84269 6.43268e-16
7254.57542 6.84014e-16
7259.30814 7.70106e-16
7264.04087 7.95847e-16
7268.77359 6.35033e-16
7273.50632 7.33780e-16
7278.23904 6.38707e-16
7282.97177 6.87952e-16
7287.70449 6.77025e-16
7292.43721 6.63908e-16
7297.16994 7.96714e-16
7301.90266 6.97419e-16
7306.63539 6.13867e-16
7311.36811 7.07401e-16
7316.10084 7.53003e-16
7320.83356 7.41365e-16
7325.56629 7.12966e-16
7330.29901 7.32270e-16
7335.03174 7.06984e-16
7339.76446 7.27185e-16
7344.49719 6.67571e-16
7349.22991 7.06262e-16
7353.96263 7.66312e-16
7358.69536 7.26776e-16
7363.42808 7.13135e-16
7368.16081 7.59247e-16
7372.89353 7.17472e-16
7377.62626 7.16333e-16
7382.35898 7.46059e-16
7387.09171 7.19458e-16
7391.82443 8.53699e-16
7396.55716 8.28365e-16
7401.28988 8.15547e-16
7406.02260 7.35233e-16
7410.75533 6.43296e-16
7415.48805 7.49664e-16
7420.22078 6.83272e-16
7424.95350 7.17634e-16
7429.68623 7.24005e-16
7434.41895 7.24146e-16
7439.15168 7.67924e-16
7443.88440 6.35089e-16
7448.61712 6.04380e-16
7453.34985 7.21664e-16
7458.08258 6.18204e-16
7462.81530 6.70687e-16
7467.54802 7.53481e-16
7472.28075 7.09190e-16
7477.01347 6.87899e-16
7481.74620 7.40279e-16
7486.47892 6.98491e-16
7491.21165 7.01496e-16
7495.94437 7.23913e-16
7500.67710 6.97947e-16
7505.40982 7.00987e-16
7510.14254 6.69720e-16
7514.87527 6.57274e-16
7519.60799 7.23524e-16
7524.34072 7.09740e-16
7529.07344 7.34996e-16
7533.80617 6.92246e-16
7538.53889 7.77061e-16
7543.27162 7.50369e-16
7548.00434 7.36610e-16
7552.73707 7.47327e-16
7557.46979 7.37460e-16
7562.20251 7.84019e-16
7566.93524 7.80286e-16
7571.66796 6.53661e-16
7576.40069 6.26041e-16
7581.13341 7.20258e-16
7585.86614 7.13038e-16
7590.59886 7.31513e-16
7595.33159 6.32707e-16
7600.06431 6.39194e-16
7604.79704 6.67528e-16
7609.52976 6.31850e-16
7614.26249 6.81356e-16
7618.99521 6.71638e-16
7623.72793 6.12681e-16
7628.46066 5.82848e-16
7633.19338 6.55637e-16
7637.92611 7.63950e-16
7642.65883 6.90961e-16
7647.39156 7.33007e-16
7652.12428 6.57622e-16
7656.85701 6.80619e-16
7661.58973 6.76876e-16
7666.32246 6.14028e-16
7671.05518 7.02727e-16
7675.78791 7.26680e-16
7680.52063 6.96083e-16
7685.25335 7.47473e-16
7689.98608 7.34688e-16
7694.71880 6.93093e-16
7699.45153 7.35967e-16
7704.18425 7.85688e-16
7708.91698 7.83555e-16
7713.64970 7.19162e-16
7718.38243 7.69178e-16
7723.11515 7.29062e-16
7727.84788 6.88997e-16
7732.58060 5.78950e-16
7737.31333 5.59813e-16
7742.04605 6.64900e-16
7746.77877 6.44453e-16
7751.51150 6.23929e-16
7756.24422 7.24451e-16
7760.97695 7.20037e-16
7765.70967 7.76889e-16
7770.44240 7.49090e-16
7775.17512 6.92201e-16
7779.90785 6.44450e-16
7784.64057 5.65170e-16
7789.37330 6.33018e-16
7794.10602 6.75599e-16
7798.83874 6.55743e-16
7803.57147 6.57685e-16
7808.30419 5.87834e-16
7813.03692 5.72641e-16
7817.76964 6.63063e-16
7822.50237 6.02994e-16
7827.23509 6.79388e-16
7831.96782 7.39060e-16
7836.70054 7.73199e-16
7841.43327 7.66732e-16
7846.16599 7.52249e-16
7850.89872 7.45642e-16
7855.63144 6.15320e-16
7860.36416 6.10182e-16
7865.09689 7.11606e-16
7869.82961 7.45436e-16
7874.56234 7.31775e-16
7879.29506 6.09978e-16
7884.02779 6.15717e-16
7888.76051 6.70213e-16
7893.49324 6.58018e-16
7898.22596 7.17609e-16
7902.95868 6.28383e-16
7907.69141 5.66373e-16
7912.42413 6.78305e-16
7917.15686 7.11675e-16
7921.88958 6.32647e-16
7926.62231 6.23003e-16
7931.35503 6.74082e-16
7936.08776 7.19058e-16
7940.82048 7.58565e-16
7945.55321 7.20883e-16
7950.28593 6.34999e-16
7955.01865 6.94894e-16
7959.75138 6.59139e-16
7964.48411 6.95090e-16
7969.21683 7.62520e-16
7973.94955 7.16828e-16
7978.68228 6.20139e-16
7983.41500 6.62338e-16
7988.14773 7.51054e-16
7992.88045 7.30515e-16
7997.61318 6.87592e-16
8002.34590 6.95497e-16
8007.07863 7.71709e-16
8011.81135 8.01571e-16
8016.54407 7.77970e-16
8021.27680 7.01687e-16
8026.00952 7.07895e-16
8030.74225 7.88798e-16
8035.47497 7.84042e-16
8040.20770 7.35553e-16
8044.94042 6.96732e-16
8049.67315 6.64360e-16
8054.40587 7.53962e-16
8059.13860 8.77704e-16
8063.87132 7.73546e-16
8068.60405 7.02914e-16
8073.33677 8.32790e-16
8078.06949 7.62801e-16
8082.80222 8.19006e-16
8087.53494 7.61719e-16
8092.26767 7.98340e-16
8097.00039 7.82857e-16
8101.73312 7.31521e-16
8106.46584 8.13411e-16
8111.19857 8.61358e-16
8115.93129 7.56294e-16
8120.66402 7.50483e-16
8125.39674 8.54290e-16
8130.12946 7.35527e-16
8134.86219 7.29139e-16
8139.59491 6.92873e-16
8144.32764 7.11414e-16
8149.06036 6.38600e-16
8153.79309 7.08824e-16
8158.52581 7.04204e-16
8163.25854 6.55522e-16
8167.99126 7.01989e-16
8172.72399 7.28003e-16
8177.45671 7.23251e-16
8182.18944 7.26174e-16
8186.92216 6.77549e-16
8191.65488 7.27723e-16
8196.38761 7.22621e-16
8197.21453 7.22621e-16
8198.87212 7.22601e-16
8200.52971 7.22576e-16
8202.18730 7.08038e-16
8203.85493 6.93505e-16
8205.51252 6.96281e-16
8207.17011 6.99057e-16
8208.82770 7.02432e-16
8210.49534 7.05792e-16
8212.15293 6.67587e-16
8213.81052 6.29400e-16
8215.47816 6.47162e-16
8217.13575 6.64913e-16
8218.79334 6.48683e-16
8220.45093 6.32469e-16
8222.11856 6.58391e-16
8223.77615 6.84299e-16
8225.43374 6.66558e-16
8227.09133 6.48830e-16
8228.75897 6.63171e-16
8230.41656 6.77503e-16
8232.07415 6.64982e-16
8233.74178 6.52464e-16
8235.39937 6.51961e-16
8237.05696 6.51454e-16
8238.71455 6.37668e-16
8240.38219 6.23885e-16
8242.03978 6.11418e-16
8243.69737 5.98969e-16
8245.36501 6.35749e-16
8247.02260 6.72513e-16
8248.68019 6.63654e-16
8250.33778 6.54799e-16
8252.00541 6.57360e-16
8253.66300 6.59905e-16
8255.32059 6.12368e-16
8256.97818 5.64864e-16
8258.64582 6.04355e-16
8260.30341 6.43834e-16
8261.96100 6.54589e-16
8263.62863 6.65335e-16
8265.28622 6.52775e-16
8266.94381 6.40214e-16
8268.60140 6.19234e-16
8270.26904 5.98263e-16
8271.92663 5.96251e-16
8273.58422 5.94241e-16
8275.25186 6.01020e-16
8276.90945 6.07791e-16
8278.56704 5.98119e-16
8280.22463 5.88447e-16
8281.89226 5.74987e-16
8283.54985 5.61537e-16
8285.20744 5.77372e-16
8286.86503 5.93198e-16
8288.53267 5.82959e-16
8290.19026 5.72726e-16
8291.84785 5.83901e-16
8293.51548 5.95076e-16
8295.17307 6.04620e-16
8296.83066 6.14159e-16
8298.48825 6.08925e-16
8300.15589 6.03681e-16
8301.81348 5.74880e-16
8303.47107 5.46091e-16
8305.12866 5.53605e-16
8306.79630 5.61114e-16
8308.45389 5.56168e-16
8310.11148 5.51222e-16
8311.77911 5.40662e-16
8313.43670 5.30108e-16
8315.09429 5.40491e-16
8316.75188 5.50875e-16
8318.41952 5.67520e-16
8320.07711 5.84157e-16
8321.73470 5.73034e-16
8323.40233 5.61906e-16
8325.05992 5.29930e-16
8326.71751 4.97973e-16
8328.37510 5.10317e-16
8330.04274 5.22662e-16
8331.70033 5.34081e-16
8333.35792 5.45497e-16
8335.01551 5.47466e-16
8336.68315 5.49436e-16
8338.34074 5.53593e-16
8339.99833 5.57751e-16
8341.65592 5.66715e-16
8343.32355 5.75687e-16
8344.98114 6.00981e-16
8346.63873 6.26261e-16
8348.30637 6.10535e-16
8349.96396 5.94803e-16
8351.62155 5.62217e-16
8353.27914 5.29646e-16
8354.94677 5.37162e-16
8356.60436 5.44679e-16
8358.26195 5.61560e-16
8359.92959 5.78434e-16
8361.58718 5.75392e-16
8363.24477 5.72345e-16
8364.90236 5.55600e-16
8366.57000 5.38855e-16
8368.22759 5.26876e-16
8369.88518 5.14909e-16
8371.54277 5.38606e-16
8373.21040 5.62281e-16
8374.86799 5.26491e-16
8376.52558 4.90724e-16
8378.19322 5.24405e-16
8379.85081 5.58068e-16
8381.50840 5.40673e-16
8383.16599 5.23287e-16
8384.83362 5.33052e-16
8386.49121 5.42804e-16
8388.14880 5.19975e-16
8389.81644 4.97160e-16
8391.47403 5.20485e-16
8393.13162 5.43809e-16
8394.78921 5.64524e-16
8396.45685 5.85227e-16
8398.11444 5.73419e-16
8399.77203 5.61613e-16
8401.42962 5.51792e-16
8403.09725 5.41977e-16
8404.75484 5.51627e-16
8406.41243 5.61283e-16
8408.08007 5.89036e-16
8409.73766 6.16770e-16
8411.39525 5.92083e-16
8413.05284 5.67404e-16
8414.72047 5.69108e-16
8416.37806 5.70804e-16
8418.03565 5.55035e-16
8419.69324 5.39272e-16
8421.36088 5.35708e-16
8423.01847 5.32149e-16
8424.67606 5.39039e-16
8426.34370 5.45916e-16
8428.00129 5.12990e-16
8429.65888 4.80086e-16
8431.31647 5.07021e-16
8432.98410 5.33954e-16
8434.64169 5.54200e-16
8436.29928 5.74435e-16
8437.95687 5.69967e-16
8439.62451 5.65499e-16
8441.28210 5.57649e-16
8442.93969 5.49791e-16
8444.60732 5.15539e-16
8446.26491 4.81304e-16
8447.92250 4.94332e-16
8449.58009 5.07364e-16
8451.24773 5.37118e-16
8452.90532 5.66864e-16
8454.56291 5.76156e-16
8456.22050 5.85437e-16
8457.88814 5.63594e-16
8459.54573 5.41754e-16
8461.20332 5.31262e-16
8462.87095 5.20778e-16
8464.52854 5.29576e-16
8466.18613 5.38370e-16
8467.84372 5.40361e-16
8469.51136 5.42351e-16
8471.16895 5.40720e-16
8472.82654 5.39086e-16
8474.48413 5.34732e-16
8476.15176 5.30385e-16
8477.80935 5.41887e-16
8479.46694 5.53398e-16
8481.13458 5.86723e-16
8482.79217 6.20025e-16
8484.44976 5.93038e-16
8486.10735 5.66062e-16
8487.77499 5.64601e-16
8489.43258 5.63153e-16
8491.09017 5.97479e-16
8492.75780 6.31781e-16
8494.41539 6.04048e-16
8496.07298 5.76327e-16
8497.73057 5.82583e-16
8499.39821 5.88837e-16
8501.05580 5.90466e-16
8502.71339 5.92094e-16
8504.37098 5.91439e-16
8506.03861 5.90783e-16
8507.69620 5.87694e-16
8509.35379 5.84607e-16
8511.01138 5.91740e-16
8512.67902 5.98867e-16
8514.33661 5.91829e-16
8515.99420 5.84799e-16
8517.66184 6.02174e-16
8519.31943 6.19538e-16
8520.97702 6.03176e-16
8522.63461 5.86816e-16
8524.30224 5.74037e-16
8525.95983 5.61275e-16
8527.61742 5.92312e-16
8529.28506 6.23343e-16
8530.94265 6.44829e-16
8532.60024 6.66297e-16
8534.25783 6.33143e-16
8535.92546 6.00012e-16
8537.58305 6.31176e-16
8539.24064 6.62321e-16
8540.89823 6.43346e-16
8542.56587 6.24379e-16
8544.22346 6.22781e-16
8545.88105 6.21185e-16
8547.54869 6.23027e-16
8549.20628 6.24878e-16
8550.86387 6.55003e-16
8552.52146 6.85117e-16
8554.18909 6.84704e-16
8555.84668 6.84297e-16
8557.50427 7.00892e-16
8559.17191 7.17474e-16
8560.82950 7.01867e-16
8562.48709 6.86263e-16
8564.14468 6.74051e-16
8565.81231 6.61851e-16
8567.46990 6.82619e-16
8569.12749 7.03379e-16
8570.78508 7.01555e-16
8572.45272 6.99725e-16
8574.11031 6.78023e-16
8575.76790 6.56322e-16
8577.43554 6.42778e-16
8579.09313 6.29245e-16
8580.75072 6.46260e-16
8582.40831 6.63264e-16
8584.07594 6.55980e-16
8585.73353 6.48703e-16
8587.39112 6.64870e-16
8589.04871 6.81039e-16
8590.71635 6.99802e-16
8592.37394 7.18552e-16
8594.03153 6.98941e-16
8595.69916 6.79335e-16
8597.35675 6.68298e-16
8599.01434 6.57269e-16
8600.67193 6.62605e-16
8602.33957 6.67951e-16
8603.99716 7.00117e-16
8605.65475 7.32265e-16
8607.32239 7.19622e-16
8608.97998 7.06975e-16
8610.63757 6.88187e-16
8612.29516 6.69406e-16
8613.96279 6.70883e-16
8615.62038 6.72359e-16
8617.27797 6.75210e-16
8618.93556 6.78059e-16
8620.60320 6.75547e-16
8622.26079 6.73045e-16
8623.91838 7.02574e-16
8625.58601 7.32098e-16
8627.24360 7.45503e-16
8628.90119 7.58894e-16
8630.55878 7.37038e-16
8632.22642 7.15186e-16
8633.88401 7.01128e-16
8635.54160 6.87085e-16
8637.20924 7.12241e-16
8638.86683 7.37392e-16
8640.52442 7.48821e-16
8642.18201 7.60229e-16
8643.84964 7.10523e-16
8645.50723 6.60838e-16
8647.16482 6.69130e-16
8648.82241 6.77428e-16
8650.49005 7.09690e-16
8652.14764 7.41938e-16
8653.80523 7.41906e-16
8655.46282 7.41868e-16
8657.13045 7.29518e-16
8658.78804 7.17179e-16
8660.44563 7.29460e-16
8662.11327 7.41726e-16
8663.77086 7.14833e-16
8665.42845 6.87951e-16
8667.08604 6.94222e-16
8668.75368 7.00488e-16
8670.41127 6.98373e-16
8672.06886 6.96260e-16
8673.73649 7.03696e-16
8675.39408 7.11123e-16
8677.05167 6.93813e-16
8678.70926 6.76514e-16
8680.37690 6.89145e-16
8682.03449 7.01773e-16
8683.69208 7.07398e-16
8685.34967 7.13011e-16
8687.01730 6.88856e-16
8688.67489 6.64718e-16
8690.33248 6.87466e-16
8691.99007 7.10208e-16
8693.65771 7.18861e-16
8695.31530 7.27503e-16
8696.97289 7.09744e-16
8698.64053 6.91993e-16
8700.29812 6.96656e-16
8701.95571 7.01322e-16
8703.61330 7.14468e-16
8705.28093 7.27603e-16
8706.93852 7.15275e-16
8708.59611 7.02945e-16
8710.26375 6.90606e-16
8711.92134 6.78279e-16
8713.57893 6.94147e-16
8715.23652 7.10006e-16
8716.90415 7.01283e-16
8718.56174 6.92558e-16
8720.21933 6.80988e-16
8721.87692 6.69422e-16
8723.54456 6.73714e-16
8725.20215 6.78010e-16
8726.85974 6.90672e-16
8728.52738 7.03336e-16
8730.18497 7.20596e-16
8731.84256 7.37840e-16
8733.50015 7.17132e-16
8735.16778 6.96439e-16
8736.82537 7.09960e-16
8738.48296 7.23471e-16
8740.14055 7.07647e-16
8741.80819 6.91834e-16
8743.46578 7.07253e-16
8745.12337 7.22653e-16
8746.79100 6.88066e-16
8748.44859 6.53496e-16
8750.10618 6.66088e-16
8751.76377 6.78694e-16
8753.43141 7.28254e-16
8755.08900 7.77795e-16
8756.74659 7.82445e-16
8758.40418 7.87073e-16
8760.07182 7.33167e-16
8761.72941 6.79277e-16
8763.38700 6.71894e-16
8765.05463 6.64517e-16
8766.71222 6.73722e-16
8768.36981 6.82920e-16
8770.02740 6.72456e-16
8771.69504 6.61998e-16
8773.35263 6.63284e-16
8775.01022 6.64567e-16
8776.67785 6.62107e-16
8778.33544 6.59647e-16
8779.99303 6.59212e-16
8781.65062 6.58780e-16
8783.31826 6.66219e-16
8784.97585 6.73645e-16
8786.63344 6.43449e-16
8788.29103 6.13260e-16
8789.95867 6.01063e-16
8791.61626 5.88885e-16
8793.27385 6.29067e-16
8794.94148 6.69227e-16
8796.59907 6.50019e-16
8798.25666 6.30817e-16
8799.91425 6.26967e-16
8801.58189 6.23117e-16
8803.23948 6.19790e-16
8804.89707 6.16464e-16
8806.56470 6.18647e-16
8808.22229 6.20832e-16
8809.87988 6.31067e-16
8811.53747 6.41299e-16
8813.20511 6.42819e-16
8814.86270 6.44341e-16
8816.52029 6.52239e-16
8818.17788 6.60134e-16
8819.84552 6.63555e-16
8821.50311 6.66976e-16
8823.16070 6.65896e-16
8824.82833 6.64818e-16
8826.48592 6.64273e-16
8828.14351 6.63704e-16
8829.80110 6.05650e-16
8831.46874 5.47638e-16
8833.12633 5.99550e-16
8834.78392 6.51437e-16
8836.44151 6.39086e-16
8838.10914 6.26741e-16
8839.76673 6.25749e-16
8841.42432 6.24754e-16
8843.09196 6.13205e-16
8844.74955 6.01660e-16
8846.40714 6.00911e-16
8848.06473 6.00163e-16
8849.73237 6.00399e-16
8851.38996 6.00640e-16
8853.04755 6.14965e-16
8854.71518 6.29276e-16
8856.37277 6.11743e-16
8858.03036 5.94213e-16
8859.68795 5.82112e-16
8861.35559 5.70015e-16
8863.01318 5.68907e-16
8864.67077 5.67804e-16
8866.32836 5.76887e-16
8867.99599 5.85973e-16
8869.65358 5.99481e-16
8871.31117 6.12985e-16
8872.97881 6.12340e-16
8874.63640 6.11687e-16
8876.29399 5.89633e-16
8877.95158 5.67595e-16
8879.61922 5.85563e-16
8881.27681 6.03519e-16
8882.93440 5.97308e-16
8884.60203 5.91106e-16
8886.25962 6.07608e-16
8887.91721 6.24105e-16
8889.57480 6.27129e-16
8891.24244 6.30140e-16
8892.90003 5.96457e-16
8894.55762 5.62790e-16
8896.21521 5.75088e-16
8897.88284 5.87380e-16
8899.54043 5.87557e-16
8901.19802 5.87730e-16
8902.85561 5.84282e-16
8904.52325 5.80835e-16
8906.18084 5.78576e-16
8907.83843 5.76311e-16
8909.50607 5.52482e-16
8911.16366 5.28666e-16
8912.82125 5.34675e-16
8914.47884 5.40676e-16
8916.14647 5.23531e-16
8917.80406 5.06404e-16
8919.46165 5.30486e-16
8921.11924 5.54555e-16
8922.78688 5.47301e-16
8924.44447 5.40065e-16
8926.10206 5.81153e-16
8927.76969 6.22222e-16
8929.42728 6.15738e-16
8931.08487 6.09235e-16
8932.74246 5.55430e-16
8934.41010 5.01647e-16
8936.06769 4.98762e-16
8937.72528 4.95890e-16
8939.38287 5.26320e-16
8941.05051 5.56723e-16
8942.70810 5.21034e-16
8944.36569 4.85363e-16
8946.03332 4.95016e-16
8947.69091 5.04659e-16
8949.34850 4.92204e-16
8951.00609 4.79761e-16
8952.67373 5.01724e-16
8954.33132 5.23665e-16
8955.98891 4.87045e-16
8957.64650 4.50449e-16
8959.31413 4.70696e-16
8960.97172 4.90939e-16
8962.62931 5.05470e-16
8964.29695 5.20003e-16
8965.95454 5.41505e-16
8967.61213 5.62989e-16
8969.26972 5.47842e-16
8970.93736 5.32698e-16
8972.59495 5.30145e-16
8974.25254 5.27590e-16
8975.92017 5.23115e-16
8977.57776 5.18637e-16
8979.23535 5.05648e-16
8980.89294 4.92671e-16
8982.56058 5.04261e-16
8984.21817 5.15851e-16
8985.87576 5.30558e-16
8987.53335 5.45250e-16
8989.20098 5.21329e-16
8990.85857 4.97416e-16
8992.51616 4.89466e-16
8994.18380 4.81521e-16
8995.84139 4.91506e-16
8997.49898 5.01490e-16
8999.15657 5.10784e-16
9000.82421 5.20082e-16
9002.48180 5.36568e-16
9004.13939 5.53045e-16
9005.79698 5.46278e-16
9007.46461 5.39512e-16
9009.12220 5.36075e-16
9010.77979 5.32646e-16
9012.44743 5.47887e-16
9014.10502 5.63112e-16
9015.76261 5.34919e-16
9017.42020 5.06742e-16
9019.08783 5.11962e-16
9020.74542 5.17174e-16
9022.40301 5.02618e-16
9024.07065 4.88067e-16
9025.72824 4.92345e-16
9027.38583 4.96624e-16
9029.04342 5.07035e-16
9030.71106 5.17451e-16
9032.36865 5.39896e-16
9034.02624 5.62319e-16
9035.68383 5.32709e-16
9037.35146 5.03108e-16
9039.00905 4.93959e-16
9040.66664 4.84821e-16
9042.33428 5.01843e-16
9043.99187 5.18850e-16
9045.64946 4.95805e-16
9047.30705 4.72761e-16
9048.97468 4.48467e-16
9050.63227 4.24199e-16
9052.28986 4.61580e-16
9053.95750 4.98948e-16
9055.61509 5.04434e-16
9057.27268 5.09906e-16
9058.93027 4.82581e-16
9060.59791 4.55264e-16
9062.25550 4.49406e-16
9063.91309 4.43553e-16
9065.57068 4.49392e-16
9067.23831 4.55222e-16
9068.89590 4.35819e-16
9070.55349 4.16433e-16
9072.21108 4.38045e-16
9073.87872 4.59647e-16
9075.53631 4.59994e-16
9077.19390 4.60342e-16
9078.86153 4.64691e-16
9080.51912 4.69021e-16
9082.17671 4.31877e-16
9083.83430 3.94760e-16
9085.50194 4.22135e-16
9087.15953 4.49505e-16
9088.81712 4.67027e-16
9090.48476 4.84533e-16
9092.14235 4.68040e-16
9093.79994 4.51574e-16
9095.45753 4.83960e-16
9097.12516 5.16318e-16
9098.78275 4.80839e-16
9100.44034 4.45386e-16
9102.09793 4.67475e-16
9103.76557 4.89574e-16
9105.42316 5.33017e-16
9107.08075 5.76431e-16
9108.74838 5.53367e-16
9110.40597 5.30301e-16
9112.06356 4.99168e-16
9113.72115 4.68047e-16
9115.38879 4.58851e-16
9117.04638 4.49664e-16
9118.70397 4.60359e-16
9120.36156 4.71049e-16
9122.02920 4.65547e-16
9123.68679 4.60052e-16
9125.34438 4.70642e-16
9127.01201 4.81232e-16
9128.66960 4.95073e-16
9130.32719 5.08910e-16
9131.98478 5.15985e-16
9133.65242 5.23057e-16
9135.31001 5.22111e-16
9136.96760 5.21169e-16
9138.63523 5.30169e-16
9140.29282 5.39159e-16
9141.95041 5.21902e-16
9143.60800 5.04654e-16
9145.27564 5.08517e-16
9146.93323 5.12374e-16
9148.59082 5.05011e-16
9150.24841 4.97643e-16
9151.91605 4.77120e-16
9153.57364 4.56621e-16
9155.23123 4.93292e-16
9156.89886 5.29947e-16
9158.55645 5.33931e-16
9160.21404 5.37908e-16
9161.87163 5.28381e-16
9163.53927 5.18844e-16
9165.19686 4.89722e-16
9166.85445 4.60620e-16
9168.51204 4.81377e-16
9170.17967 5.02127e-16
9171.83726 5.02955e-16
9173.49485 5.03782e-16
9175.15244 4.98159e-16
9176.82008 4.92549e-16
9178.47767 5.18624e-16
9180.13526 5.44691e-16
9181.80290 5.52332e-16
9183.46049 5.59966e-16
9185.11808 5.49973e-16
9186.77567 5.39986e-16
9188.44330 5.46369e-16
9190.10089 5.52746e-16
9191.75848 5.45056e-16
9193.42612 5.37359e-16
9195.08371 5.15326e-16
9196.74130 4.93313e-16
9198.39889 5.25084e-16
9200.06652 5.56842e-16
9201.72411 5.58019e-16
9203.38170 5.59183e-16
9205.03929 5.33022e-16
9206.70693 5.06872e-16
9208.36452 5.06181e-16
9210.02211 5.05501e-16
9211.68975 5.27590e-16
9213.34734 5.49666e-16
9215.00493 5.43591e-16
9216.66252 5.37513e-16
9218.33015 5.27575e-16
9219.98774 5.17636e-16
9221.64533 5.07109e-16
9223.31297 4.96589e-16
9224.97056 5.04613e-16
9226.62815 5.12624e-16
9228.28574 4.83871e-16
9229.95337 4.55147e-16
9231.61096 5.01652e-16
9233.26855 5.48145e-16
9234.92614 5.70639e-16
9236.59378 5.93109e-16
9238.25137 5.59186e-16
9239.90896 5.25271e-16
9241.56655 5.07790e-16
9243.23419 4.90331e-16
9244.89178 5.24721e-16
9246.54937 5.59086e-16
9248.21700 5.33437e-16
9249.87459 5.07802e-16
9251.53218 5.09636e-16
9253.18977 5.11467e-16
9254.85741 5.05658e-16
9256.51500 4.99854e-16
9258.17259 5.06835e-16
9259.84022 5.13817e-16
9261.49781 5.26578e-16
9263.15540 5.39331e-16
9264.81299 5.29950e-16
9266.48063 5.20559e-16
9268.13822 4.87594e-16
9269.79581 4.54659e-16
9271.45340 4.92455e-16
9273.12104 5.30227e-16
9274.77863 5.12262e-16
9276.43622 4.94313e-16
9278.10385 5.21511e-16
9279.76144 5.48686e-16
9281.41903 5.22037e-16
9283.07662 4.95400e-16
9284.74426 4.96104e-16
9286.40185 4.96813e-16
9288.05944 5.09360e-16
9289.71703 5.21885e-16
9291.38466 4.80567e-16
9293.04225 4.39271e-16
9294.69984 4.51579e-16
9296.36748 4.63891e-16
9298.02507 4.81827e-16
9299.68266 4.99756e-16
9301.34025 5.00701e-16
9303.00789 5.01644e-16
9304.66548 4.98735e-16
9306.32307 4.95819e-16
9307.99070 4.76035e-16
9309.64829 4.56255e-16
9311.30588 4.46964e-16
9312.96347 4.37682e-16
9314.63111 4.46493e-16
9316.28870 4.55290e-16
9317.94629 4.27196e-16
9319.60388 3.99099e-16
9321.27151 3.61437e-16
9322.92910 3.23809e-16
9324.58669 3.63977e-16
9326.25433 4.04130e-16
9327.91192 4.09670e-16
9329.56951 4.15212e-16
9331.22710 4.28248e-16
9332.89474 4.41271e-16
9334.55233 4.19267e-16
9336.20992 3.97275e-16
9337.87755 4.04989e-16
9339.53514 4.12702e-16
9341.19273 4.17075e-16
9342.85032 4.21457e-16
9344.51796 4.44837e-16
9346.17555 4.68211e-16
9347.83314 4.73804e-16
9349.49073 4.79370e-16
9351.15836 4.20291e-16
9352.81595 3.61235e-16
9354.47354 3.50838e-16
9356.13113 3.40468e-16
9357.79877 3.96125e-16
9359.45636 4.51756e-16
9361.11395 4.46547e-16
9362.78159 4.41350e-16
9364.43918 4.66023e-16
9366.09677 4.90685e-16
9367.75436 4.90662e-16
9369.42199 4.90638e-16
9371.07958 4.86932e-16
9372.73717 4.83199e-16
9374.40481 4.12139e-16
9376.06240 3.41112e-16
9377.71999 3.42945e-16
9379.37758 3.44790e-16
9381.04521 3.74414e-16
9382.70280 4.04026e-16
9384.36039 4.05478e-16
9386.01798 4.06929e-16
9387.68562 4.07176e-16
9389.34321 4.07420e-16
9391.00080 4.05817e-16
9392.66844 4.04223e-16
9394.32603 4.22899e-16
9395.98362 4.41560e-16
9397.64121 4.22427e-16
9399.30884 4.03302e-16
9400.96643 4.04456e-16
9402.62402 4.05612e-16
9404.28161 4.10993e-16
9405.94925 4.16368e-16
9407.60684 4.05585e-16
9409.26443 3.94817e-16
9410.93206 4.16210e-16
9412.58965 4.37594e-16
9414.24724 4.41621e-16
9415.90483 4.45639e-16
9417.57247 4.28707e-16
9419.23006 4.11782e-16
9420.88765 4.06913e-16
9422.54524 4.02038e-16
9424.21288 3.84533e-16
9425.87047 3.67057e-16
9427.52806 4.14597e-16
9429.19569 4.62102e-16
9430.85328 4.33277e-16
9432.51087 4.04459e-16
9434.16846 3.95271e-16
9435.83610 3.86065e-16
9437.49369 3.35412e-16
9439.15128 2.84771e-16
9440.80887 2.66043e-16
9442.47650 2.47358e-16
9444.13409 3.30461e-16
9445.79168 4.13527e-16
9447.45932 4.12010e-16
9449.11691 4.10497e-16
9450.77450 4.20764e-16
9452.43209 4.31016e-16
9454.09973 4.06191e-16
9455.75732 3.81365e-16
9457.41491 3.50901e-16
9459.07250 3.20456e-16
9460.74013 3.28674e-16
9462.39772 3.36901e-16
9464.05531 3.66043e-16
9465.72295 3.95157e-16
9467.38054 3.56199e-16
9469.03813 3.17272e-16
9470.69572 3.45631e-16
9472.36335 3.73992e-16
9474.02094 4.05960e-16
9475.67853 4.37923e-16
9477.34617 4.54336e-16
9479.00376 4.70733e-16
9480.66135 4.52967e-16
9482.31894 4.35209e-16
9483.98658 4.35626e-16
9485.64417 4.36031e-16
9487.30176 4.06577e-16
9488.95935 3.77135e-16
9490.62698 3.74053e-16
9492.28457 3.70969e-16
9493.94216 3.61368e-16
9495.60980 3.51792e-16
9497.26739 3.98634e-16
9498.92498 4.45448e-16
9500.58257 4.24761e-16
9502.25020 4.04085e-16
9503.90779 4.10226e-16
9505.56538 4.16369e-16
9507.23302 4.26057e-16
9508.89061 4.35726e-16
9510.54820 4.04656e-16
9512.20579 3.73594e-16
9513.87343 3.60220e-16
9515.53102 3.46848e-16
9517.18861 3.40131e-16
9518.84620 3.33436e-16
9520.51383 3.76008e-16
9522.17142 4.18548e-16
9523.82901 3.92683e-16
9525.49665 3.66834e-16
9527.15424 3.76583e-16
9528.81183 3.86323e-16
9530.46942 3.71709e-16
9532.13705 3.57108e-16
9533.79464 3.74188e-16
9535.45223 3.91261e-16
9537.10982 3.95254e-16
9538.77746 3.99248e-16
9540.43505 4.08735e-16
9542.09264 4.18217e-16
9543.76028 4.13745e-16
9545.41787 4.09262e-16
9547.07546 3.76449e-16
9548.73305 3.43644e-16
9550.40068 3.26900e-16
9552.05827 3.10198e-16
9553.71586 3.91177e-16
9555.37345 4.72103e-16
9557.04109 4.35157e-16
9558.69868 3.98224e-16
9560.35627 3.92935e-16
9562.02390 3.87657e-16
9563.68149 4.03429e-16
9565.33908 4.19183e-16
9566.99667 3.97420e-16
9568.66431 3.75669e-16
9570.32190 3.78808e-16
9571.97949 3.81951e-16
9573.64713 3.91628e-16
9575.30472 4.01288e-16
9576.96231 3.70869e-16
9578.61990 3.40464e-16
9580.28753 3.40416e-16
9581.94512 3.40374e-16
9583.60271 3.51186e-16
9585.27035 3.61989e-16
9586.92794 3.48454e-16
9588.58553 3.34923e-16
9590.24312 3.30041e-16
9591.91075 3.25175e-16
9593.56834 3.55831e-16
9595.22593 3.86467e-16
9596.88352 3.72239e-16
9598.55116 3.58028e-16
9600.20875 3.83204e-16
9601.86634 4.08368e-16
9603.52393 4.07706e-16
9605.19157 4.07051e-16
9606.84916 4.24475e-16
9608.50675 4.41869e-16
9610.17438 3.96020e-16
9611.83197 3.50191e-16
9613.48956 3.48478e-16
9615.14715 3.46763e-16
9616.81479 3.43000e-16
9618.47238 3.39242e-16
9620.12997 3.45531e-16
9621.79760 3.51821e-16
9623.45519 3.59848e-16
9625.11278 3.67874e-16
9626.77037 3.75530e-16
9628.43801 3.83187e-16
9630.09560 3.93270e-16
9631.75319 4.03347e-16
9633.41078 4.02340e-16
9635.07842 4.01343e-16
9636.73601 4.22761e-16
9638.39360 4.44157e-16
9640.06123 4.18250e-16
9641.71882 3.92359e-16
9643.37641 4.01324e-16
9645.03400 4.10268e-16
9646.70164 3.74387e-16
9648.35923 3.38534e-16
9650.01682 3.61925e-16
9651.67441 3.85304e-16
9653.34204 3.82134e-16
9654.99963 3.78954e-16
9656.65722 3.52603e-16
9658.31481 3.26270e-16
9659.98245 3.37205e-16
9661.64004 3.48153e-16
9663.29763 3.85370e-16
9664.96527 4.22549e-16
9666.62286 3.72128e-16
9668.28045 3.21741e-16
9669.93804 3.48200e-16
9671.60567 3.74658e-16
9673.26326 4.01719e-16
9674.92085 4.28771e-16
9676.58849 4.35816e-16
9678.24608 4.42849e-16
9679.90367 4.23241e-16
9681.56126 4.03663e-16
9683.22889 4.45779e-16
9684.88648 4.87862e-16
9686.54407 4.54921e-16
9688.20166 4.21974e-16
9689.86930 3.75762e-16
9691.52689 3.29593e-16
9693.18448 3.73651e-16
9694.85212 4.17692e-16
9696.50971 4.23410e-16
9698.16730 4.29140e-16
9699.82489 4.60249e-16
9701.49252 4.91303e-16
9703.15011 4.02412e-16
9704.80770 3.13571e-16
9706.46529 3.33002e-16
9708.13293 3.52430e-16
9709.79052 3.60584e-16
9711.44811 3.68719e-16
9713.11574 3.29807e-16
9714.77333 2.90930e-16
9716.43092 3.30500e-16
9718.08851 3.70069e-16
9719.75615 4.06080e-16
9721.41374 4.42060e-16
9723.07133 4.07274e-16
9724.73897 3.72510e-16
9726.39656 3.79917e-16
9728.05415 3.87325e-16
9729.71174 3.98813e-16
9731.37937 4.10285e-16
9733.03696 3.87260e-16
9734.69455 3.64250e-16
9736.35214 3.74269e-16
9738.01978 3.84289e-16
9739.67737 4.00928e-16
9741.33496 4.17558e-16
9743.00259 4.17279e-16
9744.66018 4.16993e-16
9746.31777 3.95570e-16
9747.97536 3.74149e-16
9749.64300 3.55897e-16
9751.30059 3.37671e-16
9752.95818 3.74934e-16
9754.62582 4.12163e-16
9756.28341 3.82320e-16
9757.94100 3.52497e-16
9759.59859 3.66533e-16
9761.26622 3.80566e-16
9762.92381 3.90951e-16
9764.58140 4.01328e-16
9766.23899 3.94697e-16
9767.90663 3.88077e-16
9769.56422 4.05838e-16
9771.22181 4.23584e-16
9772.87940 4.09502e-16
9774.54703 3.95418e-16
9776.20462 3.73621e-16
9777.86221 3.51826e-16
9779.52985 3.33444e-16
9781.18744 3.15087e-16
9782.84503 3.48047e-16
9784.50262 3.80991e-16
9786.17026 3.73332e-16
9787.82785 3.65719e-16
9789.48544 4.56264e-16
9791.15307 5.46745e-16
9792.81066 5.01041e-16
9794.46825 4.55350e-16
9796.12584 4.32140e-16
9797.79348 4.08945e-16
9799.45107 4.22820e-16
9801.10866 4.36652e-16
9802.76625 3.58385e-16
9804.43388 2.80145e-16
9806.09147 2.54465e-16
9807.74906 2.28827e-16
9809.41670 2.88659e-16
9811.07429 3.48469e-16
9812.73188 3.60909e-16
9814.38947 3.73347e-16
9816.05711 3.86087e-16
9817.71470 3.98816e-16
9819.37229 3.89005e-16
9821.03992 3.79184e-16
9822.69751 3.49209e-16
9824.35510 3.19269e-16
9826.01269 3.63612e-16
9827.68033 4.07924e-16
9829.33792 3.83489e-16
9830.99551 3.59073e-16
9832.65310 3.72634e-16
9834.32073 3.86183e-16
9835.97832 3.75217e-16
9837.63591 3.64245e-16
9839.30355 3.41009e-16
9840.96114 3.17805e-16
9842.61873 3.61903e-16
9844.27632 4.06001e-16
9845.94396 4.52357e-16
9847.60155 4.98680e-16
9849.25914 4.77372e-16
9850.91673 4.56062e-16
9852.58436 4.34453e-16
9854.24195 4.12844e-16
9855.89954 3.93699e-16
9857.56718 3.74562e-16
9859.22477 3.71399e-16
9860.88236 3.68238e-16
9862.53995 3.67302e-16
9864.20758 3.66401e-16
9865.86517 4.38273e-16
9867.52276 5.10105e-16
9869.18035 4.91575e-16
9870.84799 4.73063e-16
9872.50558 4.89943e-16
9874.16317 5.06835e-16
9875.83081 5.52911e-16
9877.48840 5.98928e-16
9879.14599 5.20720e-16
9880.80358 4.42514e-16
9882.47121 3.67443e-16
9884.12880 2.92438e-16
9885.78639 3.53212e-16
9887.44398 4.13973e-16
9889.11162 4.46350e-16
9890.76921 4.78717e-16
9892.42680 4.88585e-16
9894.09443 4.98456e-16
9895.75202 5.13474e-16
9897.40961 5.28488e-16
9899.06720 5.36491e-16
9900.73484 5.44447e-16
9902.39243 4.49723e-16
9904.05002 3.55041e-16
9905.70761 3.45884e-16
9907.37525 3.36724e-16
9909.03284 3.22391e-16
9910.69043 3.08064e-16
9912.35806 3.11772e-16
9914.01565 3.15503e-16
9915.67324 3.68673e-16
9917.33083 4.21807e-16
9918.99847 4.03423e-16
9920.65606 3.85053e-16
9922.31365 3.93363e-16
9923.98128 4.01676e-16
9925.63887 4.12248e-16
9927.29646 4.22826e-16
9928.95405 4.42925e-16
9930.62169 4.62973e-16
9932.27928 3.70412e-16
9933.93687 2.77882e-16
9935.59446 2.51861e-16
9937.26210 2.25896e-16
9938.91969 3.13241e-16
9940.57728 4.00561e-16
9942.23487 4.36348e-16
9943.90250 4.72119e-16
9945.56009 4.72376e-16
9947.21768 4.72603e-16
9948.88532 4.07266e-16
9950.54291 3.41996e-16
9952.20050 4.17367e-16
9953.85809 4.92702e-16
9955.52572 4.91537e-16
9957.18331 4.90349e-16
9958.84090 4.37645e-16
9960.50854 3.84958e-16
9962.16613 3.61979e-16
9963.82372 3.39006e-16
9965.48131 3.25860e-16
9967.14895 3.12706e-16
9968.80654 2.80982e-16
9970.46413 2.49267e-16
9972.12172 2.34114e-16
9973.78935 2.18969e-16
9975.44694 2.21009e-16
9977.10453 2.23080e-16
9978.77217 2.85323e-16
9980.42976 3.47534e-16
9982.08735 3.44343e-16
9983.74494 3.41164e-16
9985.41257 3.64658e-16
9987.07016 3.88155e-16
9988.72775 4.24841e-16
9990.39539 4.61504e-16
9992.05298 4.49333e-16
9993.71057 4.37144e-16
9995.36816 3.93474e-16
9997.03580 3.49789e-16
9998.69339 2.70593e-16
