# wavelength flux
3440.00000 3.61107e-16
3444.73526 1.04852e-16
3449.47053 -1.95505e-17
3454.20579 2.17118e-16
3458.94106 3.29821e-16
3463.67632 -2.01243e-18
3468.41159 -1.55621e-17
3473.14685 2.46757e-16
3477.88212 2.49931e-16
3482.61738 1.85700e-18
3487.35265 4.43278e-17
3492.08791 1.43111e-16
3496.82318 2.70886e-16
3501.55844 2.25564e-16
3506.29371 1.78900e-16
3511.02897 9.84653e-17
3515.76424 1.06953e-16
3520.49950 1.51019e-16
3525.23477 9.15005e-17
3529.97003 2.23936e-16
3534.70530 2.34314e-16
3539.44056 2.35364e-16
3544.17582 2.58300e-16
3548.91109 1.93603e-16
3553.64635 3.25865e-16
3558.38162 2.55289e-16
3563.11688 9.87757e-17
3567.85215 1.13223e-16
3572.58741 1.59032e-16
3577.32268 2.28909e-16
3582.05794 2.80500e-16
3586.79321 3.06978e-16
3591.52847 2.74504e-16
3596.26374 2.55348e-16
3600.99900 2.39889e-16
3605.73427 2.27944e-16
3610.46953 2.23583e-16
3615.20480 2.81756e-16
3619.94006 2.87337e-16
3624.67533 2.65152e-16
3629.41059 3.79918e-16
3634.14586 4.07149e-16
3638.88112 3.10603e-16
3643.61638 2.37441e-16
3648.35165 2.11679e-16
3653.08691 2.37880e-16
3657.82218 3.10065e-16
3662.55744 2.79989e-16
3667.29271 2.32047e-16
3672.02797 2.68416e-16
3676.76324 3.01273e-16
3681.49850 2.76041e-16
3686.23377 2.87299e-16
3690.96903 3.13005e-16
3695.70430 2.91876e-16
3700.43956 2.84464e-16
3705.17483 2.84470e-16
3709.91009 2.36913e-16
3714.64536 2.23990e-16
3719.38062 2.09855e-16
3724.11589 2.80812e-16
3728.85115 3.02757e-16
3733.58642 2.90729e-16
3738.32168 2.89282e-16
3743.05695 3.18148e-16
3747.79221 3.07490e-16
3752.52747 2.87773e-16
3757.26274 2.48687e-16
3761.99800 2.54742e-16
3766.73327 2.63732e-16
3771.46853 2.62509e-16
3776.20380 2.54244e-16
3780.93906 2.32256e-16
3785.67433 2.47377e-16
3790.40959 2.54468e-16
3795.14486 2.29813e-16
3799.88012 2.51516e-16
3804.61539 2.69596e-16
3809.35065 2.78792e-16
3814.08592 2.88506e-16
3818.82118 2.68149e-16
3823.55645 2.65178e-16
3828.29171 2.81188e-16
3833.02698 2.81556e-16
3837.76224 3.06610e-16
3842.49751 3.24007e-16
3847.23277 3.19914e-16
3851.96804 3.29507e-16
3856.70330 3.35271e-16
3861.43856 3.18188e-16
3866.17383 3.13264e-16
3870.90909 3.20206e-16
3875.64436 3.20913e-16
3880.37962 3.24570e-16
3885.11489 3.15603e-16
3889.85015 3.05809e-16
3894.58542 3.28132e-16
3899.32068 3.46124e-16
3904.05595 3.41213e-16
3908.79121 3.37520e-16
3913.52648 3.29165e-16
3918.26174 3.18472e-16
3922.99701 2.80803e-16
3927.73227 2.80753e-16
3932.46754 3.15525e-16
3937.20280 3.58776e-16
3941.93807 3.62823e-16
3946.67333 3.53119e-16
3951.40860 3.51640e-16
3956.14386 3.55166e-16
3960.87913 3.65424e-16
3965.61439 3.59834e-16
3970.34965 3.66714e-16
3975.08492 3.48534e-16
3979.82019 3.15815e-16
3984.55545 3.02312e-16
3989.29071 2.90196e-16
3994.02598 2.95176e-16
3998.76124 3.13779e-16
4003.49651 3.44829e-16
4008.23177 3.66533e-16
4012.96704 3.61327e-16
4017.70230 3.51007e-16
4022.43757 3.51931e-16
4027.17283 3.38154e-16
4031.90810 3.57629e-16
4036.64336 3.59774e-16
4041.37863 3.64991e-16
4046.11389 3.86595e-16
4050.84916 3.99825e-16
4055.58442 3.86171e-16
4060.31969 3.67213e-16
4065.05495 3.65059e-16
4069.79021 3.60000e-16
4074.52548 3.60701e-16
4079.26075 3.71512e-16
4083.99601 3.93875e-16
4088.73128 3.92102e-16
4093.46654 3.69832e-16
4098.20180 3.67196e-16
4102.93707 3.96941e-16
4107.67233 4.04683e-16
4112.40760 3.92750e-16
4117.14286 3.73076e-16
4121.87813 3.77846e-16
4126.61339 4.10742e-16
4131.34866 3.98782e-16
4136.08392 3.91264e-16
4140.81919 4.00329e-16
4145.55445 3.99195e-16
4150.28972 3.97526e-16
4155.02498 4.00660e-16
4159.76025 4.02656e-16
4164.49551 4.10312e-16
4169.23078 4.08105e-16
4173.96604 4.27614e-16
4178.70130 4.28560e-16
4183.43657 4.19207e-16
4188.17184 4.13926e-16
4192.90710 4.24728e-16
4197.64236 4.24630e-16
4202.37763 4.39083e-16
4207.11289 4.46490e-16
4211.84816 4.30797e-16
4216.58342 4.18396e-16
4221.31869 4.13923e-16
4226.05395 4.28420e-16
4230.78922 4.37609e-16
4235.52448 4.30091e-16
4240.25975 4.18282e-16
4244.99501 4.17088e-16
4249.73028 4.09286e-16
4254.46554 4.22474e-16
4259.20081 4.43007e-16
4263.93607 4.40458e-16
4268.67134 4.48958e-16
4273.40660 4.71716e-16
4278.14187 4.44833e-16
4282.87713 4.43126e-16
4287.61240 4.68661e-16
4292.34766 4.60967e-16
4297.08292 4.47035e-16
4301.81819 4.59558e-16
4306.55345 4.51482e-16
4311.28872 4.42131e-16
4316.02398 4.53686e-16
4320.75925 4.65610e-16
4325.49451 4.62496e-16
4330.22978 4.60455e-16
4334.96504 4.57297e-16
4339.70031 4.71401e-16
4344.43557 4.68952e-16
4349.17084 4.57255e-16
4353.90610 4.37762e-16
4358.64137 4.47469e-16
4363.37663 4.58472e-16
4368.11190 4.46433e-16
4372.84716 4.52046e-16
4377.58243 4.65143e-16
4382.31769 4.58551e-16
4387.05296 4.54257e-16
4391.78822 4.59700e-16
4396.52348 4.58150e-16
4401.25875 4.50799e-16
4405.99402 4.81306e-16
4410.72928 4.68605e-16
4415.46454 3.68472e-16
4420.19981 3.71764e-16
4424.93507 4.53939e-16
4429.67034 4.91197e-16
4434.40560 5.03893e-16
4439.14087 5.01224e-16
4443.87613 5.12835e-16
4448.61140 5.19688e-16
4453.34666 5.00142e-16
4458.08193 4.91075e-16
4462.81719 4.92078e-16
4467.55246 5.07147e-16
4472.28772 5.13908e-16
4477.02299 5.13239e-16
4481.75825 5.22412e-16
4486.49352 5.26362e-16
4491.22878 5.27471e-16
4495.96405 5.21203e-16
4500.69931 5.25594e-16
4505.43458 5.26869e-16
4510.16984 5.13531e-16
4514.90510 5.01510e-16
4519.64037 4.86449e-16
4524.37563 5.24066e-16
4529.11090 5.52753e-16
4533.84616 5.48298e-16
4538.58143 5.45223e-16
4543.31669 5.52607e-16
4548.05196 5.51985e-16
4552.78722 5.33205e-16
4557.52249 5.17431e-16
4562.25775 4.69146e-16
4566.99302 4.40231e-16
4571.72828 5.15919e-16
4576.46355 5.34281e-16
4581.19881 5.43294e-16
4585.93408 5.33330e-16
4590.66934 5.25644e-16
4595.40461 5.26956e-16
4600.13987 5.07224e-16
4604.87514 5.02448e-16
4609.61040 5.21927e-16
4614.34566 5.17575e-16
4619.08093 4.90834e-16
4623.81620 5.08029e-16
4628.55146 5.33132e-16
4633.28672 5.61135e-16
4638.02199 5.49990e-16
4642.75725 5.38674e-16
4647.49252 5.18286e-16
4652.22778 5.15449e-16
4656.96305 5.17721e-16
4661.69831 5.09679e-16
4666.43358 5.18148e-16
4671.16884 5.08817e-16
4675.90411 5.03785e-16
4680.63937 5.04352e-16
4685.37464 5.20748e-16
4690.10990 5.21283e-16
4694.84517 5.20621e-16
4699.58043 5.34644e-16
4704.31570 5.51103e-16
4709.05096 5.53774e-16
4713.78622 5.59192e-16
4718.52149 5.47208e-16
4723.25676 5.59056e-16
4727.99202 5.64908e-16
4732.72728 5.54333e-16
4737.46255 5.58453e-16
4742.19781 5.63296e-16
4746.93308 5.50560e-16
4751.66834 5.43293e-16
4756.40361 5.48434e-16
4761.13887 5.49678e-16
4765.87414 5.61251e-16
4770.60940 5.73437e-16
4775.34467 5.75473e-16
4780.07993 5.66314e-16
4784.81520 5.63866e-16
4789.55046 5.62447e-16
4794.28573 5.56207e-16
4799.02099 5.65835e-16
4803.75626 5.64001e-16
4808.49152 5.47246e-16
4813.22679 5.49444e-16
4817.96205 5.59993e-16
4822.69732 5.63465e-16
4827.43258 5.65787e-16
4832.16784 5.67583e-16
4836.90311 5.77885e-16
4841.63837 5.77843e-16
4846.37364 5.65014e-16
4851.10890 5.73803e-16
4855.84417 5.79242e-16
4860.57943 5.74564e-16
4865.31470 5.73658e-16
4870.04996 5.69247e-16
4874.78523 5.68520e-16
4879.52049 5.79695e-16
4884.25576 5.86845e-16
4888.99102 5.86610e-16
4893.72629 5.73845e-16
4898.46155 5.61946e-16
4903.19682 5.59390e-16
4907.93208 5.69430e-16
4912.66735 5.69972e-16
4917.40261 5.52120e-16
4922.13788 5.36895e-16
4926.87314 5.30249e-16
4931.60840 5.43189e-16
4936.34367 5.77684e-16
4941.07893 5.80746e-16
4945.81420 5.73227e-16
4950.54946 5.82980e-16
4955.28473 5.90628e-16
4960.01999 6.03606e-16
4964.75526 5.92887e-16
4969.49052 5.77190e-16
4974.22579 5.70989e-16
4978.96105 5.76703e-16
4983.69632 6.03279e-16
4988.43158 6.28771e-16
4993.16685 6.38508e-16
4997.90211 6.32836e-16
5002.63738 6.29181e-16
5007.37264 6.13623e-16
5012.10791 6.11687e-16
5016.84317 6.19899e-16
5021.57844 6.16704e-16
5026.31370 6.05106e-16
5031.04896 6.16477e-16
5035.78423 6.27477e-16
5040.51949 6.27634e-16
5045.25476 6.46471e-16
5049.99003 6.53519e-16
5054.72529 6.32434e-16
5059.46055 6.14470e-16
5064.19582 6.23664e-16
5068.93108 6.63470e-16
5073.66635 6.85025e-16
5078.40161 6.86471e-16
5083.13688 6.94515e-16
5087.87214 6.91822e-16
5092.60741 6.89625e-16
5097.34267 6.84883e-16
5102.07794 6.67562e-16
5106.81320 6.61955e-16
5111.54847 6.69022e-16
5116.28373 6.79937e-16
5121.01900 6.80491e-16
5125.75426 7.15008e-16
5130.48953 7.12409e-16
5135.22479 6.66421e-16
5139.96005 6.65593e-16
5144.69532 6.68280e-16
5149.43059 6.63330e-16
5154.16585 6.62299e-16
5158.90111 6.67261e-16
5163.63638 6.68738e-16
5168.37164 6.59667e-16
5173.10691 6.45403e-16
5177.84217 6.36430e-16
5182.57744 6.46005e-16
5187.31270 6.66823e-16
5192.04797 6.84231e-16
5196.78323 6.92042e-16
5201.51850 6.74644e-16
5206.25376 6.45105e-16
5210.98903 6.40025e-16
5215.72429 6.48305e-16
5220.45956 6.64323e-16
5225.19482 6.89812e-16
5229.93009 6.89888e-16
5234.66535 6.73535e-16
5239.40062 6.82070e-16
5244.13588 6.97678e-16
5248.87115 6.97941e-16
5253.60641 6.93964e-16
5258.34167 6.97871e-16
5263.07694 6.90875e-16
5267.81220 6.85806e-16
5272.54747 6.82326e-16
5277.28273 6.80850e-16
5282.01800 6.87789e-16
5286.75326 6.92899e-16
5291.48853 6.98608e-16
5296.22379 6.92638e-16
5300.95906 6.91310e-16
5305.69432 6.88364e-16
5310.42959 6.94441e-16
5315.16485 7.04336e-16
5319.90012 7.06218e-16
5324.63538 7.11349e-16
5329.37065 7.22141e-16
5334.10591 7.10697e-16
5338.84118 7.06863e-16
5343.57644 6.97358e-16
5348.31171 6.92474e-16
5353.04697 7.03643e-16
5357.78223 7.03617e-16
5362.51750 7.04391e-16
5367.25277 7.08865e-16
5371.98803 7.07931e-16
5376.72329 7.07294e-16
5381.45856 6.97723e-16
5386.19382 6.99982e-16
5390.92909 7.21712e-16
5395.66435 7.29516e-16
5400.39962 7.21564e-16
5405.13488 7.24053e-16
5409.87015 7.26154e-16
5414.60541 7.11538e-16
5419.34068 7.09313e-16
5424.07594 7.17685e-16
5428.81121 7.14574e-16
5433.54647 7.09805e-16
5438.28174 7.16756e-16
5443.01700 7.27030e-16
5447.75227 7.20118e-16
5452.48753 7.13966e-16
5457.22279 7.22812e-16
5461.95806 7.30218e-16
5466.69333 7.48341e-16
5471.42859 7.40764e-16
5476.16385 7.36066e-16
5480.89912 7.23842e-16
5485.63438 7.20938e-16
5490.36965 7.31230e-16
5495.10491 7.44729e-16
5499.84018 7.45598e-16
5504.57544 7.43757e-16
5509.31071 7.43448e-16
5514.04597 7.47081e-16
5518.78124 7.51264e-16
5523.51650 7.62245e-16
5528.25177 7.59220e-16
5532.98703 7.56776e-16
5537.72230 7.56305e-16
5542.45756 7.52093e-16
5547.19283 7.58745e-16
5551.92809 7.74522e-16
5556.66336 7.79447e-16
5561.39862 7.77028e-16
5566.13389 7.76300e-16
5570.86915 7.72418e-16
5575.60441 7.66771e-16
5580.33968 7.64841e-16
5585.07494 7.75999e-16
5589.81021 7.84417e-16
5594.54547 7.79563e-16
5599.28074 7.72508e-16
5604.01600 7.68576e-16
5608.75127 7.69761e-16
5613.48653 7.74066e-16
5618.22180 7.77981e-16
5622.95706 7.70837e-16
5627.69233 7.64406e-16
5632.42759 7.54210e-16
5637.16286 7.51140e-16
5641.89812 7.79230e-16
5646.63339 8.01904e-16
5651.36865 7.86662e-16
5656.10392 7.51837e-16
5660.83918 7.46935e-16
5665.57445 7.66608e-16
5670.30971 7.77088e-16
5675.04497 7.64907e-16
5679.78024 7.60294e-16
5684.51551 7.71749e-16
5689.25077 7.78088e-16
5693.98603 7.79443e-16
5698.72130 7.76257e-16
5703.45656 7.65913e-16
5708.19183 7.63805e-16
5712.92709 7.75009e-16
5717.66236 7.65166e-16
5722.39762 7.31052e-16
5727.13289 7.05910e-16
5731.86815 6.81133e-16
5736.60342 6.63746e-16
5741.33868 6.75410e-16
5746.07395 7.32265e-16
5750.80921 7.71008e-16
5755.54448 7.94679e-16
5760.27974 8.04145e-16
5765.01501 8.05117e-16
5769.75027 7.85142e-16
5774.48554 7.62966e-16
5779.22080 7.60884e-16
5783.95607 7.94593e-16
5788.69133 8.13114e-16
5793.42659 7.94367e-16
5798.16186 7.93994e-16
5802.89712 7.97870e-16
5807.63239 7.92080e-16
5812.36765 8.06607e-16
5817.10292 8.17621e-16
5821.83818 8.16734e-16
5826.57345 8.14523e-16
5831.30871 8.06739e-16
5836.04398 8.05937e-16
5840.77924 8.03644e-16
5845.51451 8.01421e-16
5850.24977 7.86728e-16
5854.98504 7.71826e-16
5859.72030 7.89108e-16
5864.45557 7.91816e-16
5869.19083 7.91309e-16
5873.92610 7.83148e-16
5878.66136 7.71983e-16
5883.39663 7.72128e-16
5888.13189 7.63829e-16
5892.86715 7.56182e-16
5897.60242 7.73362e-16
5902.33769 7.95804e-16
5907.07295 7.99693e-16
5911.80821 7.94959e-16
5916.54348 7.98631e-16
5921.27874 8.08777e-16
5926.01401 7.85332e-16
5930.74927 7.27697e-16
5935.48454 7.30761e-16
5940.21980 8.34906e-16
5944.95507 9.65153e-16
5949.69033 1.01546e-15
5954.42560 9.90369e-16
5959.16086 8.77484e-16
5963.89613 6.82559e-16
5968.63139 5.20778e-16
5973.36666 5.07606e-16
5978.10192 6.26735e-16
5982.83719 7.75569e-16
5987.57245 8.60755e-16
5992.30771 8.67076e-16
5997.04298 8.55583e-16
6001.77825 8.48069e-16
6006.51351 8.48385e-16
6011.24878 8.62697e-16
6015.98404 8.68047e-16
6020.71930 8.54058e-16
6025.45457 8.09412e-16
6030.18983 7.84753e-16
6034.92510 8.18102e-16
6039.66036 8.08697e-16
6044.39563 8.06656e-16
6049.13089 8.15177e-16
6053.86616 8.04079e-16
6058.60142 7.94490e-16
6063.33669 8.06638e-16
6068.07195 8.10900e-16
6072.80722 7.83954e-16
6077.54248 7.71770e-16
6082.27775 7.74808e-16
6087.01301 7.67291e-16
6091.74828 7.60209e-16
6096.48354 7.53556e-16
6101.21881 7.48105e-16
6105.95407 7.54665e-16
6110.68934 7.73774e-16
6115.42460 7.89943e-16
6120.15986 7.78698e-16
6124.89513 7.61977e-16
6129.63039 7.59301e-16
6134.36566 7.60505e-16
6139.10092 7.62943e-16
6143.83619 7.64044e-16
6148.57145 7.64736e-16
6153.30672 7.65253e-16
6158.04198 7.58094e-16
6162.77725 7.47256e-16
6167.51251 7.44927e-16
6172.24778 7.54471e-16
6176.98304 7.47058e-16
6181.71831 7.37644e-16
6186.45357 7.33856e-16
6191.18884 7.34666e-16
6195.92410 7.40989e-16
6200.65937 7.37316e-16
6205.39463 7.35277e-16
6210.12990 7.27611e-16
6214.86516 7.20895e-16
6219.60042 7.24776e-16
6224.33569 7.31424e-16
6229.07095 7.53963e-16
6233.80622 7.45836e-16
6238.54148 7.37315e-16
6243.27675 7.47124e-16
6248.01201 7.49650e-16
6252.74728 7.35182e-16
6257.48254 7.21747e-16
6262.21781 7.20269e-16
6266.95307 7.17792e-16
6271.68834 7.08531e-16
6276.42360 6.93549e-16
6281.15887 6.85031e-16
6285.89413 6.87646e-16
6290.62940 6.79960e-16
6295.36466 6.77523e-16
6300.09993 6.91374e-16
6304.83519 6.97336e-16
6309.57046 6.97448e-16
6314.30572 6.96085e-16
6319.04098 6.79248e-16
6323.77625 6.93913e-16
6328.51152 7.07699e-16
6333.24678 7.02817e-16
6337.98204 6.88222e-16
6342.71731 6.82823e-16
6347.45257 6.86267e-16
6352.18784 6.86016e-16
6356.92310 6.84173e-16
6361.65837 6.86990e-16
6366.39363 6.83326e-16
6371.12890 6.71273e-16
6375.86416 6.76657e-16
6380.59943 6.81306e-16
6385.33469 6.85103e-16
6390.06996 6.95929e-16
6394.80522 6.90958e-16
6399.54049 6.94754e-16
6404.27575 6.95580e-16
6409.01102 7.03482e-16
6413.74628 7.12718e-16
6418.48154 7.09467e-16
6423.21681 7.04836e-16
6427.95208 6.99028e-16
6432.68734 6.95227e-16
6437.42260 7.02873e-16
6442.15787 6.98941e-16
6446.89313 6.84901e-16
6451.62840 6.93791e-16
6456.36366 6.99996e-16
6461.09893 6.88231e-16
6465.83419 6.90142e-16
6470.56946 6.95606e-16
6475.30472 6.88714e-16
6480.03999 6.88768e-16
6484.77525 6.85900e-16
6489.51052 6.77843e-16
6494.24578 6.87722e-16
6498.98105 6.91994e-16
6503.71631 6.83652e-16
6508.45158 6.79253e-16
6513.18684 6.83481e-16
6517.92211 6.87777e-16
6522.65737 6.78736e-16
6527.39264 6.78684e-16
6532.12790 6.85486e-16
6536.86316 6.80138e-16
6541.59843 6.72317e-16
6546.33369 6.58976e-16
6551.06896 6.49295e-16
6555.80422 6.56899e-16
6560.53949 6.70023e-16
6565.27475 6.89749e-16
6570.01002 7.08171e-16
6574.74528 7.10857e-16
6579.48055 6.94520e-16
6584.21581 6.81225e-16
6588.95108 6.85437e-16
6593.68634 6.89278e-16
6598.42161 6.93908e-16
6603.15687 7.00530e-16
6607.89214 6.93820e-16
6612.62740 6.93662e-16
6617.36267 6.93305e-16
6622.09793 6.78506e-16
6626.83320 6.46914e-16
6631.56846 6.26973e-16
6636.30372 5.92262e-16
6641.03899 4.68030e-16
6645.77426 3.33237e-16
6650.50952 2.90790e-16
6655.24478 3.44198e-16
6659.98005 4.73482e-16
6664.71531 5.33491e-16
6669.45058 4.67589e-16
6674.18584 4.76350e-16
6678.92111 5.85231e-16
6683.65637 6.99983e-16
6688.39164 7.37660e-16
6693.12690 7.36011e-16
6697.86217 7.03300e-16
6702.59743 6.59604e-16
6707.33270 6.70276e-16
6712.06796 7.02538e-16
6716.80323 7.06596e-16
6721.53849 6.91986e-16
6726.27376 6.80197e-16
6731.00902 6.90601e-16
6735.74429 6.92634e-16
6740.47955 6.55657e-16
6745.21482 6.24373e-16
6749.95008 6.24615e-16
6754.68534 6.71204e-16
6759.42061 7.38987e-16
6764.15587 7.84531e-16
6768.89114 7.74170e-16
6773.62640 7.48254e-16
6778.36167 7.25744e-16
6783.09693 7.14432e-16
6787.83220 7.14256e-16
6792.56746 6.91901e-16
6797.30273 6.47092e-16
6802.03799 6.20279e-16
6806.77326 6.13900e-16
6811.50852 5.94157e-16
6816.24379 5.71176e-16
6820.97905 5.86224e-16
6825.71432 6.17922e-16
6830.44958 6.50417e-16
6835.18485 6.63822e-16
6839.92011 6.58334e-16
6844.65538 6.59342e-16
6849.39064 6.68547e-16
6854.12590 6.74431e-16
6858.86117 6.58747e-16
6863.59644 6.31040e-16
6868.33170 6.20383e-16
6873.06696 6.27582e-16
6877.80223 6.31383e-16
6882.53749 6.26318e-16
6887.27276 6.26186e-16
6892.00802 6.36431e-16
6896.74329 6.42324e-16
6901.47855 6.35556e-16
6906.21382 6.36226e-16
6910.94908 6.40622e-16
6915.68435 6.32640e-16
6920.41961 6.28539e-16
6925.15488 6.32467e-16
6929.89014 6.24148e-16
6934.62541 6.12765e-16
6939.36067 6.05914e-16
6944.09594 5.96877e-16
6948.83120 5.98597e-16
6953.56646 6.01937e-16
6958.30173 6.03193e-16
6963.03700 6.10473e-16
6967.77226 6.13395e-16
6972.50752 6.12987e-16
6977.24279 6.14231e-16
6981.97805 6.08588e-16
6986.71332 6.04004e-16
6991.44858 5.99383e-16
6996.18385 6.03251e-16
7000.91911 6.10908e-16
7005.65438 6.08672e-16
7010.38964 6.08532e-16
7015.12491 6.04989e-16
7019.86017 5.96072e-16
7024.59544 5.92858e-16
7029.33070 5.96909e-16
7034.06597 5.97141e-16
7038.80123 6.00980e-16
7043.53650 6.03351e-16
7048.27176 6.08612e-16
7053.00703 6.12298e-16
7057.74229 6.03654e-16
7062.47756 5.95863e-16
7067.21282 6.01241e-16
7071.94808 5.98363e-16
7076.68335 5.90466e-16
7081.41861 5.95946e-16
7086.15388 5.99281e-16
7090.88914 6.09309e-16
7095.62441 6.05772e-16
7100.35967 6.06609e-16
7105.09494 6.21468e-16
7109.83020 6.36643e-16
7114.56547 6.30720e-16
7119.30073 6.29960e-16
7124.03600 6.28338e-16
7128.77126 6.12308e-16
7133.50653 6.10845e-16
7138.24179 6.24298e-16
7142.97706 6.45286e-16
7147.71232 6.89027e-16
7152.44759 7.25576e-16
7157.18285 7.23688e-16
7161.91812 7.07531e-16
7166.65338 6.73692e-16
7171.38864 6.47620e-16
7176.12391 6.41912e-16
7180.85917 6.37819e-16
7185.59444 6.28955e-16
7190.32970 6.25346e-16
7195.06497 6.26297e-16
7199.80023 6.28885e-16
7204.53550 6.31931e-16
7209.27076 6.29012e-16
7214.00603 6.25449e-16
7218.74129 6.12938e-16
7223.47656 5.92913e-16
7228.21182 5.93226e-16
7232.94709 5.88782e-16
7237.68235 5.90115e-16
7242.41762 5.98580e-16
7247.15288 5.98293e-16
7251.88815 6.02647e-16
7256.62341 6.10778e-16
7261.35868 6.12137e-16
7266.09394 6.12444e-16
7270.82921 6.03622e-16
7275.56447 5.94622e-16
7280.29973 6.03094e-16
7285.03500 6.13563e-16
7289.77027 6.14471e-16
7294.50553 6.12758e-16
7299.24079 6.23716e-16
7303.97606 6.43652e-16
7308.71132 6.49841e-16
7313.44659 6.47539e-16
7318.18185 6.44887e-16
7322.91712 6.37451e-16
7327.65238 6.31728e-16
7332.38765 6.32292e-16
7337.12291 6.37655e-16
7341.85818 6.37380e-16
7346.59344 6.26275e-16
7351.32871 6.14652e-16
7356.06397 6.09124e-16
7360.79924 6.19397e-16
7365.53450 6.37580e-16
7370.26977 6.34282e-16
7375.00503 6.27524e-16
7379.74029 6.23927e-16
7384.47556 6.16543e-16
7389.21083 6.17294e-16
7393.94609 6.12900e-16
7398.68135 6.06864e-16
7403.41662 6.13246e-16
7408.15188 6.03971e-16
7412.88715 5.86866e-16
7417.62241 5.85635e-16
7422.35768 5.79966e-16
7427.09294 5.86721e-16
7431.82821 5.95509e-16
7436.56347 5.85746e-16
7441.29874 5.79276e-16
7446.03400 5.80655e-16
7450.76927 5.77533e-16
7455.50453 5.77515e-16
7460.23980 5.76799e-16
7464.97506 5.71635e-16
7469.71033 5.67675e-16
7474.44559 5.70924e-16
7479.18086 5.74121e-16
7483.91612 5.67950e-16
7488.65139 5.74571e-16
7493.38665 5.72653e-16
7498.12191 5.65034e-16
7502.85718 5.76411e-16
7507.59244 5.83964e-16
7512.32771 5.77445e-16
7517.06297 5.66112e-16
7521.79824 5.49927e-16
7526.53350 5.56047e-16
7531.26877 5.68423e-16
7536.00403 5.68022e-16
7540.73930 5.80217e-16
7545.47456 5.84654e-16
7550.20983 5.81848e-16
7554.94509 5.78660e-16
7559.68036 5.79453e-16
7564.41562 5.81518e-16
7569.15089 5.82866e-16
7573.88615 5.76199e-16
7578.62142 5.66299e-16
7583.35668 5.54045e-16
7588.09195 5.36916e-16
7592.82721 5.57449e-16
7597.56247 5.73560e-16
7602.29774 5.68346e-16
7607.03301 5.58105e-16
7611.76827 5.46880e-16
7616.50353 5.37320e-16
7621.23880 5.37806e-16
7625.97406 5.41015e-16
7630.70933 5.33075e-16
7635.44459 5.24190e-16
7640.17986 5.28015e-16
7644.91512 5.15972e-16
7649.65039 5.04135e-16
7654.38565 5.25429e-16
7659.12092 5.39721e-16
7663.85618 5.44318e-16
7668.59145 5.34061e-16
7673.32671 5.29128e-16
7678.06198 5.40310e-16
7682.79724 5.43582e-16
7687.53251 5.44050e-16
7692.26777 5.48226e-16
7697.00304 5.45894e-16
7701.73830 5.43489e-16
7706.47357 5.40018e-16
7711.20883 5.35420e-16
7715.94409 5.41755e-16
7720.67936 5.48553e-16
7725.41462 5.45127e-16
7730.14989 5.56370e-16
7734.88515 5.64152e-16
7739.62042 5.68506e-16
7744.35568 5.70770e-16
7749.09095 5.46598e-16
7753.82621 5.26935e-16
7758.56148 5.36235e-16
7763.29674 5.33887e-16
7768.03201 5.24246e-16
7772.76727 5.36569e-16
7777.50254 5.39421e-16
7782.23780 5.25749e-16
7786.97307 5.35866e-16
7791.70833 5.46348e-16
7796.44360 5.27255e-16
7801.17886 5.17363e-16
7805.91413 5.29868e-16
7810.64939 5.38987e-16
7815.38465 5.36307e-16
7820.11992 5.34128e-16
7824.85519 5.34860e-16
7829.59045 5.36233e-16
7834.32571 5.38691e-16
7839.06098 5.29109e-16
7843.79624 5.30544e-16
7848.53151 5.42789e-16
7853.26677 5.46994e-16
7858.00204 5.39484e-16
7862.73730 5.46598e-16
7867.47257 5.67349e-16
7872.20783 5.63178e-16
7876.94310 5.42859e-16
7881.67836 5.44304e-16
7886.41363 5.49672e-16
7891.14889 5.39758e-16
7895.88416 5.36811e-16
7900.61942 5.44737e-16
7905.35469 5.43742e-16
7910.08995 5.39853e-16
7914.82521 5.48157e-16
7919.56048 5.51121e-16
7924.29575 5.46753e-16
7929.03101 5.55610e-16
7933.76627 5.62483e-16
7938.50154 5.56589e-16
7943.23680 5.50648e-16
7947.97207 5.41179e-16
7952.70733 5.39828e-16
7957.44260 5.43936e-16
7962.17786 5.53595e-16
7966.91313 5.79666e-16
7971.64839 5.72493e-16
7976.38366 5.54813e-16
7981.11892 5.70080e-16
7985.85419 5.80755e-16
7990.58945 5.73827e-16
7995.32472 5.66279e-16
8000.05998 5.60554e-16
8004.79525 5.63820e-16
8009.53051 5.75217e-16
8014.26578 5.92190e-16
8019.00104 5.94916e-16
8023.73631 5.78139e-16
8028.47157 5.69099e-16
8033.20683 5.68917e-16
8037.94210 5.66635e-16
8042.67736 5.63900e-16
8047.41263 5.69304e-16
8052.14789 5.76352e-16
8056.88316 5.82076e-16
8061.61842 5.81962e-16
8066.35369 5.71016e-16
8071.08895 5.61513e-16
8075.82422 5.62881e-16
8080.55948 5.70587e-16
8085.29475 5.71212e-16
8090.03001 5.66673e-16
8094.76528 5.68623e-16
8099.50054 5.67523e-16
8104.23581 5.61373e-16
8108.97107 5.61815e-16
8113.70634 5.60574e-16
8118.44160 5.67075e-16
8123.17687 5.69433e-16
8127.91213 5.62106e-16
8132.64739 5.65985e-16
8137.38266 5.55087e-16
8142.11792 5.49961e-16
8146.85319 5.63137e-16
8151.58845 5.66866e-16
8156.32372 5.57725e-16
8161.05898 5.61356e-16
8165.79425 5.60436e-16
8170.52951 5.71140e-16
8175.26478 5.85158e-16
8175.62567 5.85158e-16
8177.28326 5.34432e-16
8178.95090 5.49604e-16
8180.60849 5.64780e-16
8182.26608 5.84832e-16
8183.92367 6.04879e-16
8185.59131 6.14249e-16
8187.24890 6.23604e-16
8188.90649 5.85436e-16
8190.56408 5.47284e-16
8192.23171 5.53116e-16
8193.88930 5.58954e-16
8195.54689 5.87738e-16
8197.21453 6.16512e-16
8198.87212 6.16495e-16
8200.52971 6.16473e-16
8202.18730 6.04070e-16
8203.85493 5.91671e-16
8205.51252 5.94039e-16
8207.17011 5.96408e-16
8208.82770 5.99287e-16
8210.49534 6.02154e-16
8212.15293 5.69559e-16
8213.81052 5.36979e-16
8215.47816 5.52133e-16
8217.13575 5.67277e-16
8218.79334 5.53431e-16
8220.45093 5.39597e-16
8222.11856 5.61713e-16
8223.77615 5.83817e-16
8225.43374 5.68681e-16
8227.09133 5.53556e-16
8228.75897 5.65791e-16
8230.41656 5.78019e-16
8232.07415 5.67336e-16
8233.74178 5.56657e-16
8235.39937 5.56227e-16
8237.05696 5.55795e-16
8238.71455 5.44033e-16
8240.38219 5.32274e-16
8242.03978 5.21638e-16
8243.69737 5.11017e-16
8245.36501 5.42395e-16
8247.02260 5.73761e-16
8248.68019 5.66203e-16
8250.33778 5.58648e-16
8252.00541 5.60834e-16
8253.66300 5.63005e-16
8255.32059 5.22448e-16
8256.97818 4.81919e-16
8258.64582 5.15611e-16
8260.30341 5.49294e-16
8261.96100 5.58469e-16
8263.62863 5.67637e-16
8265.28622 5.56922e-16
8266.94381 5.46205e-16
8268.60140 5.28306e-16
8270.26904 5.10415e-16
8271.92663 5.08697e-16
8273.58422 5.06983e-16
8275.25186 5.12766e-16
8276.90945 5.18543e-16
8278.56704 5.10292e-16
8280.22463 5.02040e-16
8281.89226 4.90556e-16
8283.54985 4.79081e-16
8285.20744 4.92591e-16
8286.86503 5.06093e-16
8288.53267 4.97357e-16
8290.19026 4.88627e-16
8291.84785 4.98162e-16
8293.51548 5.07696e-16
8295.17307 5.15838e-16
8296.83066 5.23976e-16
8298.48825 5.19510e-16
8300.15589 5.15037e-16
8301.81348 4.90465e-16
8303.47107 4.65904e-16
8305.12866 4.72314e-16
8306.79630 4.78720e-16
8308.45389 4.74501e-16
8310.11148 4.70281e-16
8311.77911 4.61271e-16
8313.43670 4.52267e-16
8315.09429 4.61126e-16
8316.75188 4.69984e-16
8318.41952 4.84186e-16
8320.07711 4.98379e-16
8321.73470 4.88890e-16
8323.40233 4.79396e-16
8325.05992 4.52115e-16
8326.71751 4.24851e-16
8328.37510 4.35382e-16
8330.04274 4.45914e-16
8331.70033 4.55657e-16
8333.35792 4.65397e-16
8335.01551 4.67076e-16
8336.68315 4.68757e-16
8338.34074 4.72303e-16
8339.99833 4.75851e-16
8341.65592 4.83499e-16
8343.32355 4.91154e-16
8344.98114 5.12734e-16
8346.63873 5.34302e-16
8348.30637 5.20884e-16
8349.96396 5.07462e-16
8351.62155 4.79662e-16
8353.27914 4.51873e-16
8354.94677 4.58285e-16
8356.60436 4.64698e-16
8358.26195 4.79101e-16
8359.92959 4.93497e-16
8361.58718 4.90902e-16
8363.24477 4.88302e-16
8364.90236 4.74016e-16
8366.57000 4.59730e-16
8368.22759 4.49510e-16
8369.88518 4.39300e-16
8371.54277 4.59517e-16
8373.21040 4.79716e-16
8374.86799 4.49181e-16
8376.52558 4.18667e-16
8378.19322 4.47401e-16
8379.85081 4.76122e-16
8381.50840 4.61281e-16
8383.16599 4.46448e-16
8384.83362 4.54779e-16
8386.49121 4.63099e-16
8388.14880 4.43622e-16
8389.81644 4.24157e-16
8391.47403 4.44058e-16
8393.13162 4.63957e-16
8394.78921 4.81629e-16
8396.45685 4.99292e-16
8398.11444 4.89219e-16
8399.77203 4.79146e-16
8401.42962 4.70767e-16
8403.09725 4.62394e-16
8404.75484 4.70626e-16
8406.41243 4.78865e-16
8408.08007 5.02542e-16
8409.73766 5.26204e-16
8411.39525 5.05142e-16
8413.05284 4.84087e-16
8414.72047 4.85540e-16
8416.37806 4.86987e-16
8418.03565 4.73534e-16
8419.69324 4.60085e-16
8421.36088 4.57045e-16
8423.01847 4.54008e-16
8424.67606 4.59887e-16
8426.34370 4.65754e-16
8428.00129 4.37663e-16
8429.65888 4.09590e-16
8431.31647 4.32570e-16
8432.98410 4.55548e-16
8434.64169 4.72821e-16
8436.29928 4.90086e-16
8437.95687 4.86273e-16
8439.62451 4.82461e-16
8441.28210 4.75764e-16
8442.93969 4.69060e-16
8444.60732 4.39837e-16
8446.26491 4.10629e-16
8447.92250 4.21744e-16
8449.58009 4.32863e-16
8451.24773 4.58248e-16
8452.90532 4.83626e-16
8454.56291 4.91553e-16
8456.22050 4.99472e-16
8457.88814 4.80836e-16
8459.54573 4.62203e-16
8461.20332 4.53252e-16
8462.87095 4.44307e-16
8464.52854 4.51813e-16
8466.18613 4.59316e-16
8467.84372 4.61015e-16
8469.51136 4.62713e-16
8471.16895 4.61321e-16
8472.82654 4.59926e-16
8474.48413 4.56212e-16
8476.15176 4.52503e-16
8477.80935 4.62317e-16
8479.46694 4.72137e-16
8481.13458 5.00569e-16
8482.79217 5.28981e-16
8484.44976 5.05957e-16
8486.10735 4.82942e-16
8487.77499 4.81695e-16
8489.43258 4.80460e-16
8491.09017 5.09745e-16
8492.75780 5.39011e-16
8494.41539 5.15350e-16
8496.07298 4.91699e-16
8497.73057 4.97037e-16
8499.39821 5.02372e-16
8501.05580 5.03762e-16
8502.71339 5.05151e-16
8504.37098 5.04593e-16
8506.03861 5.04033e-16
8507.69620 5.01397e-16
8509.35379 4.98764e-16
8511.01138 5.04849e-16
8512.67902 5.10930e-16
8514.33661 5.04925e-16
8515.99420 4.98927e-16
8517.66184 5.13751e-16
8519.31943 5.28565e-16
8520.97702 5.14606e-16
8522.63461 5.00648e-16
8524.30224 4.89746e-16
8525.95983 4.78857e-16
8527.61742 5.05337e-16
8529.28506 5.31811e-16
8530.94265 5.50143e-16
8532.60024 5.68458e-16
8534.25783 5.40173e-16
8535.92546 5.11906e-16
8537.58305 5.38494e-16
8539.24064 5.65066e-16
8540.89823 5.48877e-16
8542.56587 5.32695e-16
8544.22346 5.31332e-16
8545.88105 5.29970e-16
8547.54869 5.31542e-16
8549.20628 5.33121e-16
8550.86387 5.58823e-16
8552.52146 5.84515e-16
8554.18909 5.84162e-16
8555.84668 5.83815e-16
8557.50427 5.97973e-16
8559.17191 6.12120e-16
8560.82950 5.98805e-16
8562.48709 5.85493e-16
8564.14468 5.75074e-16
8565.81231 5.64665e-16
8567.46990 5.82384e-16
8569.12749 6.00095e-16
8570.78508 5.98539e-16
8572.45272 5.96977e-16
8574.11031 5.78462e-16
8575.76790 5.59948e-16
8577.43554 5.48393e-16
8579.09313 5.36847e-16
8580.75072 5.51364e-16
8582.40831 5.65871e-16
8584.07594 5.59656e-16
8585.73353 5.53448e-16
8587.39112 5.67241e-16
8589.04871 5.81035e-16
8590.71635 5.97044e-16
8592.37394 6.13040e-16
8594.03153 5.96309e-16
8595.69916 5.79582e-16
8597.35675 5.70166e-16
8599.01434 5.60756e-16
8600.67193 5.65308e-16
8602.33957 5.69870e-16
8603.99716 5.97312e-16
8605.65475 6.24739e-16
8607.32239 6.13953e-16
8608.97998 6.03163e-16
8610.63757 5.87134e-16
8612.29516 5.71111e-16
8613.96279 5.72370e-16
8615.62038 5.73630e-16
8617.27797 5.76062e-16
8618.93556 5.78493e-16
8620.60320 5.76350e-16
8622.26079 5.74215e-16
8623.91838 5.99409e-16
8625.58601 6.24597e-16
8627.24360 6.36034e-16
8628.90119 6.47458e-16
8630.55878 6.28812e-16
8632.22642 6.10168e-16
8633.88401 5.98174e-16
8635.54160 5.86194e-16
8637.20924 6.07655e-16
8638.86683 6.29114e-16
8640.52442 6.38865e-16
8642.18201 6.48597e-16
8643.84964 6.06190e-16
8645.50723 5.63801e-16
8647.16482 5.70875e-16
8648.82241 5.77955e-16
8650.49005 6.05480e-16
8652.14764 6.32992e-16
8653.80523 6.32965e-16
8655.46282 6.32932e-16
8657.13045 6.22396e-16
8658.78804 6.11869e-16
8660.44563 6.22347e-16
8662.11327 6.32812e-16
8663.77086 6.09867e-16
8665.42845 5.86933e-16
8667.08604 5.92283e-16
8668.75368 5.97629e-16
8670.41127 5.95824e-16
8672.06886 5.94021e-16
8673.73649 6.00366e-16
8675.39408 6.06702e-16
8677.05167 5.91933e-16
8678.70926 5.77175e-16
8680.37690 5.87952e-16
8682.03449 5.98725e-16
8683.69208 6.03524e-16
8685.34967 6.08313e-16
8687.01730 5.87705e-16
8688.67489 5.67111e-16
8690.33248 5.86519e-16
8691.99007 6.05922e-16
8693.65771 6.13304e-16
8695.31530 6.20677e-16
8696.97289 6.05525e-16
8698.64053 5.90381e-16
8700.29812 5.94360e-16
8701.95571 5.98341e-16
8703.61330 6.09556e-16
8705.28093 6.20762e-16
8706.93852 6.10244e-16
8708.59611 5.99725e-16
8710.26375 5.89198e-16
8711.92134 5.78681e-16
8713.57893 5.92219e-16
8715.23652 6.05749e-16
8716.90415 5.98307e-16
8718.56174 5.90863e-16
8720.21933 5.80992e-16
8721.87692 5.71124e-16
8723.54456 5.74786e-16
8725.20215 5.78451e-16
8726.85974 5.89254e-16
8728.52738 6.00059e-16
8730.18497 6.14784e-16
8731.84256 6.29495e-16
8733.50015 6.11829e-16
8735.16778 5.94174e-16
8736.82537 6.05710e-16
8738.48296 6.17237e-16
8740.14055 6.03736e-16
8741.80819 5.90245e-16
8743.46578 6.03400e-16
8745.12337 6.16539e-16
8746.79100 5.87030e-16
8748.44859 5.57537e-16
8750.10618 5.68280e-16
8751.76377 5.79035e-16
8753.43141 6.21317e-16
8755.08900 6.63584e-16
8756.74659 6.67551e-16
8758.40418 6.71499e-16
8760.07182 6.25509e-16
8761.72941 5.79532e-16
8763.38700 5.73234e-16
8765.05463 5.66940e-16
8766.71222 5.74793e-16
8768.36981 5.82640e-16
8770.02740 5.73713e-16
8771.69504 5.64791e-16
8773.35263 5.65888e-16
8775.01022 5.66982e-16
8776.67785 5.64883e-16
8778.33544 5.62785e-16
8779.99303 5.62414e-16
8781.65062 5.62045e-16
8783.31826 5.68392e-16
8784.97585 5.74727e-16
8786.63344 5.48965e-16
8788.29103 5.23209e-16
8789.95867 5.12803e-16
8791.61626 5.02413e-16
8793.27385 5.36695e-16
8794.94148 5.70958e-16
8796.59907 5.54570e-16
8798.25666 5.38188e-16
8799.91425 5.34904e-16
8801.58189 5.31619e-16
8803.23948 5.28781e-16
8804.89707 5.25943e-16
8806.56470 5.27805e-16
8808.22229 5.29669e-16
8809.87988 5.38401e-16
8811.53747 5.47131e-16
8813.20511 5.48428e-16
8814.86270 5.49726e-16
8816.52029 5.56464e-16
8818.17788 5.63200e-16
8819.84552 5.66119e-16
8821.50311 5.69037e-16
8823.16070 5.68116e-16
8824.82833 5.67196e-16
8826.48592 5.66732e-16
8828.14351 5.66246e-16
8829.80110 5.16717e-16
8831.46874 4.67223e-16
8833.12633 5.11513e-16
8834.78392 5.55780e-16
8836.44151 5.45243e-16
8838.10914 5.34711e-16
8839.76673 5.33864e-16
8841.42432 5.33016e-16
8843.09196 5.23162e-16
8844.74955 5.13313e-16
8846.40714 5.12673e-16
8848.06473 5.12035e-16
8849.73237 5.12236e-16
8851.38996 5.12442e-16
8853.04755 5.24664e-16
8854.71518 5.36873e-16
8856.37277 5.21915e-16
8858.03036 5.06959e-16
8859.68795 4.96635e-16
8861.35559 4.86314e-16
8863.01318 4.85369e-16
8864.67077 4.84428e-16
8866.32836 4.92177e-16
8867.99599 4.99929e-16
8869.65358 5.11454e-16
8871.31117 5.22975e-16
8872.97881 5.22424e-16
8874.63640 5.21867e-16
8876.29399 5.03051e-16
8877.95158 4.84249e-16
8879.61922 4.99579e-16
8881.27681 5.14899e-16
8882.93440 5.09599e-16
8884.60203 5.04308e-16
8886.25962 5.18387e-16
8887.91721 5.32462e-16
8889.57480 5.35042e-16
8891.24244 5.37610e-16
8892.90003 5.08873e-16
8894.55762 4.80151e-16
8896.21521 4.90642e-16
8897.88284 5.01130e-16
8899.54043 5.01280e-16
8901.19802 5.01428e-16
8902.85561 4.98487e-16
8904.52325 4.95545e-16
8906.18084 4.93618e-16
8907.83843 4.91686e-16
8909.50607 4.71356e-16
8911.16366 4.51037e-16
8912.82125 4.56164e-16
8914.47884 4.61283e-16
8916.14647 4.46656e-16
8917.80406 4.32044e-16
8919.46165 4.52590e-16
8921.11924 4.73125e-16
8922.78688 4.66936e-16
8924.44447 4.60762e-16
8926.10206 4.95817e-16
8927.76969 5.30855e-16
8929.42728 5.25324e-16
8931.08487 5.19775e-16
8932.74246 4.73871e-16
8934.41010 4.27985e-16
8936.06769 4.25524e-16
8937.72528 4.23074e-16
8939.38287 4.49035e-16
8941.05051 4.74974e-16
8942.70810 4.44526e-16
8944.36569 4.14092e-16
8946.03332 4.22328e-16
8947.69091 4.30555e-16
8949.34850 4.19929e-16
8951.00609 4.09313e-16
8952.67373 4.28051e-16
8954.33132 4.46770e-16
8955.98891 4.15528e-16
8957.64650 3.84305e-16
8959.31413 4.01579e-16
8960.97172 4.18850e-16
8962.62931 4.31247e-16
8964.29695 4.43646e-16
8965.95454 4.61990e-16
8967.61213 4.80320e-16
8969.26972 4.67397e-16
8970.93736 4.54477e-16
8972.59495 4.52298e-16
8974.25254 4.50119e-16
8975.92017 4.46301e-16
8977.57776 4.42480e-16
8979.23535 4.31399e-16
8980.89294 4.20327e-16
8982.56058 4.30215e-16
8984.21817 4.40103e-16
8985.87576 4.52651e-16
8987.53335 4.65186e-16
8989.20098 4.44778e-16
8990.85857 4.24375e-16
8992.51616 4.17593e-16
8994.18380 4.10815e-16
8995.84139 4.19334e-16
8997.49898 4.27852e-16
8999.15657 4.35781e-16
9000.82421 4.43713e-16
9002.48180 4.57778e-16
9004.13939 4.71836e-16
9005.79698 4.66063e-16
9007.46461 4.60290e-16
9009.12220 4.57358e-16
9010.77979 4.54432e-16
9012.44743 4.67435e-16
9014.10502 4.80425e-16
9015.76261 4.56372e-16
9017.42020 4.32332e-16
9019.08783 4.36786e-16
9020.74542 4.41233e-16
9022.40301 4.28814e-16
9024.07065 4.16399e-16
9025.72824 4.20049e-16
9027.38583 4.23700e-16
9029.04342 4.32582e-16
9030.71106 4.41469e-16
9032.36865 4.60618e-16
9034.02624 4.79748e-16
9035.68383 4.54486e-16
9037.35146 4.29231e-16
9039.00905 4.21426e-16
9040.66664 4.13630e-16
9042.33428 4.28153e-16
9043.99187 4.42662e-16
9045.64946 4.23001e-16
9047.30705 4.03341e-16
9048.97468 3.82615e-16
9050.63227 3.61910e-16
9052.28986 3.93802e-16
9053.95750 4.25683e-16
9055.61509 4.30363e-16
9057.27268 4.35032e-16
9058.93027 4.11719e-16
9060.59791 3.88414e-16
9062.25550 3.83415e-16
9063.91309 3.78422e-16
9065.57068 3.83403e-16
9067.23831 3.88377e-16
9068.89590 3.71823e-16
9070.55349 3.55284e-16
9072.21108 3.73722e-16
9073.87872 3.92152e-16
9075.53631 3.92449e-16
9077.19390 3.92746e-16
9078.86153 3.96456e-16
9080.51912 4.00150e-16
9082.17671 3.68460e-16
9083.83430 3.36794e-16
9085.50194 3.60148e-16
9087.15953 3.83500e-16
9088.81712 3.98449e-16
9090.48476 4.13384e-16
9092.14235 3.99313e-16
9093.79994 3.85265e-16
9095.45753 4.12895e-16
9097.12516 4.40502e-16
9098.78275 4.10233e-16
9100.44034 3.79986e-16
9102.09793 3.98831e-16
9103.76557 4.17685e-16
9105.42316 4.54749e-16
9107.08075 4.91788e-16
9108.74838 4.72111e-16
9110.40597 4.52432e-16
9112.06356 4.25871e-16
9113.72115 3.99319e-16
9115.38879 3.91473e-16
9117.04638 3.83636e-16
9118.70397 3.92760e-16
9120.36156 4.01880e-16
9122.02920 3.97187e-16
9123.68679 3.92498e-16
9125.34438 4.01533e-16
9127.01201 4.10568e-16
9128.66960 4.22377e-16
9130.32719 4.34182e-16
9131.98478 4.40218e-16
9133.65242 4.46251e-16
9135.31001 4.45445e-16
9136.96760 4.44640e-16
9138.63523 4.52319e-16
9140.29282 4.59989e-16
9141.95041 4.45267e-16
9143.60800 4.30551e-16
9145.27564 4.33847e-16
9146.93323 4.37138e-16
9148.59082 4.30856e-16
9150.24841 4.24569e-16
9151.91605 4.07060e-16
9153.57364 3.89571e-16
9155.23123 4.20857e-16
9156.89886 4.52130e-16
9158.55645 4.55529e-16
9160.21404 4.58922e-16
9161.87163 4.50793e-16
9163.53927 4.42657e-16
9165.19686 4.17812e-16
9166.85445 3.92983e-16
9168.51204 4.10692e-16
9170.17967 4.28395e-16
9171.83726 4.29101e-16
9173.49485 4.29807e-16
9175.15244 4.25010e-16
9176.82008 4.20224e-16
9178.47767 4.42469e-16
9180.13526 4.64709e-16
9181.80290 4.71228e-16
9183.46049 4.77741e-16
9185.11808 4.69215e-16
9186.77567 4.60695e-16
9188.44330 4.66141e-16
9190.10089 4.71581e-16
9191.75848 4.65020e-16
9193.42612 4.58454e-16
9195.08371 4.39655e-16
9196.74130 4.20875e-16
9198.39889 4.47981e-16
9200.06652 4.75075e-16
9201.72411 4.76080e-16
9203.38170 4.77073e-16
9205.03929 4.54754e-16
9206.70693 4.32443e-16
9208.36452 4.31854e-16
9210.02211 4.31274e-16
9211.68975 4.50119e-16
9213.34734 4.68954e-16
9215.00493 4.63770e-16
9216.66252 4.58585e-16
9218.33015 4.50106e-16
9219.98774 4.41626e-16
9221.64533 4.32645e-16
9223.31297 4.23670e-16
9224.97056 4.30516e-16
9226.62815 4.37351e-16
9228.28574 4.12820e-16
9229.95337 3.88314e-16
9231.61096 4.27990e-16
9233.26855 4.67656e-16
9234.92614 4.86847e-16
9236.59378 5.06017e-16
9238.25137 4.77075e-16
9239.90896 4.48141e-16
9241.56655 4.33227e-16
9243.23419 4.18331e-16
9244.89178 4.47671e-16
9246.54937 4.76990e-16
9248.21700 4.55108e-16
9249.87459 4.33236e-16
9251.53218 4.34802e-16
9253.18977 4.36363e-16
9254.85741 4.31407e-16
9256.51500 4.26456e-16
9258.17259 4.32411e-16
9259.84022 4.38368e-16
9261.49781 4.49256e-16
9263.15540 4.60136e-16
9264.81299 4.52132e-16
9266.48063 4.44120e-16
9268.13822 4.15996e-16
9269.79581 3.87897e-16
9271.45340 4.20143e-16
9273.12104 4.52368e-16
9274.77863 4.37041e-16
9276.43622 4.21729e-16
9278.10385 4.44933e-16
9279.76144 4.68117e-16
9281.41903 4.45381e-16
9283.07662 4.22656e-16
9284.74426 4.23257e-16
9286.40185 4.23861e-16
9288.05944 4.34566e-16
9289.71703 4.45252e-16
9291.38466 4.10001e-16
9293.04225 3.74769e-16
9294.69984 3.85270e-16
9296.36748 3.95773e-16
9298.02507 4.11076e-16
9299.68266 4.26372e-16
9301.34025 4.27178e-16
9303.00789 4.27983e-16
9304.66548 4.25501e-16
9306.32307 4.23013e-16
9307.99070 4.06134e-16
9309.64829 3.89259e-16
9311.30588 3.81332e-16
9312.96347 3.73413e-16
9314.63111 3.80930e-16
9316.28870 3.88435e-16
9317.94629 3.64466e-16
9319.60388 3.40495e-16
9321.27151 3.08364e-16
9322.92910 2.76261e-16
9324.58669 3.10531e-16
9326.25433 3.44788e-16
9327.91192 3.49514e-16
9329.56951 3.54242e-16
9331.22710 3.65365e-16
9332.89474 3.76475e-16
9334.55233 3.57702e-16
9336.20992 3.38939e-16
9337.87755 3.45521e-16
9339.53514 3.52101e-16
9341.19273 3.55832e-16
9342.85032 3.59570e-16
9344.51796 3.79518e-16
9346.17555 3.99459e-16
9347.83314 4.04231e-16
9349.49073 4.08980e-16
9351.15836 3.58576e-16
9352.81595 3.08191e-16
9354.47354 2.99321e-16
9356.13113 2.90474e-16
9357.79877 3.37958e-16
9359.45636 3.85420e-16
9361.11395 3.80976e-16
9362.78159 3.76542e-16
9364.43918 3.97592e-16
9366.09677 4.18633e-16
9367.75436 4.18614e-16
9369.42199 4.18593e-16
9371.07958 4.15431e-16
9372.73717 4.12246e-16
9374.40481 3.51621e-16
9376.06240 2.91023e-16
9377.71999 2.92587e-16
9379.37758 2.94161e-16
9381.04521 3.19435e-16
9382.70280 3.44699e-16
9384.36039 3.45938e-16
9386.01798 3.47175e-16
9387.68562 3.47386e-16
9389.34321 3.47594e-16
9391.00080 3.46227e-16
9392.66844 3.44867e-16
9394.32603 3.60801e-16
9395.98362 3.76722e-16
9397.64121 3.60398e-16
9399.30884 3.44081e-16
9400.96643 3.45066e-16
9402.62402 3.46052e-16
9404.28161 3.50643e-16
9405.94925 3.55228e-16
9407.60684 3.46029e-16
9409.26443 3.36842e-16
9410.93206 3.55094e-16
9412.58965 3.73338e-16
9414.24724 3.76774e-16
9415.90483 3.80202e-16
9417.57247 3.65756e-16
9419.23006 3.51316e-16
9420.88765 3.47162e-16
9422.54524 3.43003e-16
9424.21288 3.28069e-16
9425.87047 3.13158e-16
9427.52806 3.53717e-16
9429.19569 3.94247e-16
9430.85328 3.69655e-16
9432.51087 3.45068e-16
9434.16846 3.37230e-16
9435.83610 3.29375e-16
9437.49369 2.86160e-16
9439.15128 2.42956e-16
9440.80887 2.26977e-16
9442.47650 2.11036e-16
9444.13409 2.81936e-16
9445.79168 3.52805e-16
9447.45932 3.51510e-16
9449.11691 3.50219e-16
9450.77450 3.58979e-16
9452.43209 3.67726e-16
9454.09973 3.46546e-16
9455.75732 3.25366e-16
9457.41491 2.99375e-16
9459.07250 2.73400e-16
9460.74013 2.80412e-16
9462.39772 2.87430e-16
9464.05531 3.12294e-16
9465.72295 3.37132e-16
9467.38054 3.03895e-16
9469.03813 2.70684e-16
9470.69572 2.94879e-16
9472.36335 3.19075e-16
9474.02094 3.46349e-16
9475.67853 3.73619e-16
9477.34617 3.87621e-16
9479.00376 4.01611e-16
9480.66135 3.86453e-16
9482.31894 3.71303e-16
9483.98658 3.71658e-16
9485.64417 3.72004e-16
9487.30176 3.46876e-16
9488.95935 3.21757e-16
9490.62698 3.19127e-16
9492.28457 3.16496e-16
9493.94216 3.08305e-16
9495.60980 3.00135e-16
9497.26739 3.40099e-16
9498.92498 3.80039e-16
9500.58257 3.62389e-16
9502.25020 3.44749e-16
9503.90779 3.49988e-16
9505.56538 3.55230e-16
9507.23302 3.63495e-16
9508.89061 3.71744e-16
9510.54820 3.45237e-16
9512.20579 3.18736e-16
9513.87343 3.07326e-16
9515.53102 2.95917e-16
9517.18861 2.90186e-16
9518.84620 2.84474e-16
9520.51383 3.20795e-16
9522.17142 3.57089e-16
9523.82901 3.35021e-16
9525.49665 3.12968e-16
9527.15424 3.21286e-16
9528.81183 3.29596e-16
9530.46942 3.17127e-16
9532.13705 3.04671e-16
9533.79464 3.19243e-16
9535.45223 3.33809e-16
9537.10982 3.37215e-16
9538.77746 3.40623e-16
9540.43505 3.48717e-16
9542.09264 3.56806e-16
9543.76028 3.52991e-16
9545.41787 3.49166e-16
9547.07546 3.21172e-16
9548.73305 2.93183e-16
9550.40068 2.78898e-16
9552.05827 2.64649e-16
9553.71586 3.33736e-16
9555.37345 4.02780e-16
9557.04109 3.71259e-16
9558.69868 3.39749e-16
9560.35627 3.35237e-16
9562.02390 3.30733e-16
9563.68149 3.44189e-16
9565.33908 3.57631e-16
9566.99667 3.39063e-16
9568.66431 3.20506e-16
9570.32190 3.23184e-16
9571.97949 3.25865e-16
9573.64713 3.34122e-16
9575.30472 3.42363e-16
9576.96231 3.16411e-16
9578.61990 2.90471e-16
9580.28753 2.90430e-16
9581.94512 2.90394e-16
9583.60271 2.99618e-16
9585.27035 3.08834e-16
9586.92794 2.97287e-16
9588.58553 2.85743e-16
9590.24312 2.81578e-16
9591.91075 2.77427e-16
9593.56834 3.03581e-16
9595.22593 3.29718e-16
9596.88352 3.17580e-16
9598.55116 3.05456e-16
9600.20875 3.26934e-16
9601.86634 3.48404e-16
9603.52393 3.47839e-16
9605.19157 3.47280e-16
9606.84916 3.62145e-16
9608.50675 3.76985e-16
9610.17438 3.37869e-16
9611.83197 2.98769e-16
9613.48956 2.97308e-16
9615.14715 2.95845e-16
9616.81479 2.92634e-16
9618.47238 2.89428e-16
9620.12997 2.94793e-16
9621.79760 3.00160e-16
9623.45519 3.07008e-16
9625.11278 3.13856e-16
9626.77037 3.20388e-16
9628.43801 3.26920e-16
9630.09560 3.35522e-16
9631.75319 3.44119e-16
9633.41078 3.43261e-16
9635.07842 3.42410e-16
9636.73601 3.60683e-16
9638.39360 3.78937e-16
9640.06123 3.56835e-16
9641.71882 3.34745e-16
9643.37641 3.42394e-16
9645.03400 3.50024e-16
9646.70164 3.19412e-16
9648.35923 2.88823e-16
9650.01682 3.08780e-16
9651.67441 3.28726e-16
9653.34204 3.26022e-16
9654.99963 3.23309e-16
9656.65722 3.00827e-16
9658.31481 2.78361e-16
9659.98245 2.87690e-16
9661.64004 2.97031e-16
9663.29763 3.28783e-16
9664.96527 3.60502e-16
9666.62286 3.17485e-16
9668.28045 2.74497e-16
9669.93804 2.97070e-16
9671.60567 3.19644e-16
9673.26326 3.42731e-16
9674.92085 3.65810e-16
9676.58849 3.71821e-16
9678.24608 3.77821e-16
9679.90367 3.61092e-16
9681.56126 3.44389e-16
9683.22889 3.80321e-16
9684.88648 4.16225e-16
9686.54407 3.88121e-16
9688.20166 3.60011e-16
9689.86930 3.20585e-16
9691.52689 2.81195e-16
9693.18448 3.18784e-16
9694.85212 3.56358e-16
9696.50971 3.61237e-16
9698.16730 3.66126e-16
9699.82489 3.92666e-16
9701.49252 4.19160e-16
9703.15011 3.43322e-16
9704.80770 2.67526e-16
9706.46529 2.84105e-16
9708.13293 3.00679e-16
9709.79052 3.07636e-16
9711.44811 3.14577e-16
9713.11574 2.81378e-16
9714.77333 2.48210e-16
9716.43092 2.81970e-16
9718.08851 3.15728e-16
9719.75615 3.46452e-16
9721.41374 3.77148e-16
9723.07133 3.47470e-16
9724.73897 3.17811e-16
9726.39656 3.24130e-16
9728.05415 3.30450e-16
9729.71174 3.40252e-16
9731.37937 3.50039e-16
9733.03696 3.30395e-16
9734.69455 3.10763e-16
9736.35214 3.19311e-16
9738.01978 3.27860e-16
9739.67737 3.42056e-16
9741.33496 3.56244e-16
9743.00259 3.56006e-16
9744.66018 3.55762e-16
9746.31777 3.37485e-16
9747.97536 3.19209e-16
9749.64300 3.03637e-16
9751.30059 2.88088e-16
9752.95818 3.19878e-16
9754.62582 3.51641e-16
9756.28341 3.26181e-16
9757.94100 3.00737e-16
9759.59859 3.12712e-16
9761.26622 3.24684e-16
9762.92381 3.33544e-16
9764.58140 3.42398e-16
9766.23899 3.36739e-16
9767.90663 3.31092e-16
9769.56422 3.46245e-16
9771.22181 3.61385e-16
9772.87940 3.49371e-16
9774.54703 3.37355e-16
9776.20462 3.18759e-16
9777.86221 3.00164e-16
9779.52985 2.84481e-16
9781.18744 2.68820e-16
9782.84503 2.96940e-16
9784.50262 3.25046e-16
9786.17026 3.18512e-16
9787.82785 3.12017e-16
9789.48544 3.89266e-16
9791.15307 4.66461e-16
9792.81066 4.27469e-16
9794.46825 3.88487e-16
9796.12584 3.68684e-16
9797.79348 3.48896e-16
9799.45107 3.60734e-16
9801.10866 3.72534e-16
9802.76625 3.05760e-16
9804.43388 2.39008e-16
9806.09147 2.17100e-16
9807.74906 1.95226e-16
9809.41670 2.46273e-16
9811.07429 2.97300e-16
9812.73188 3.07913e-16
9814.38947 3.18525e-16
9816.05711 3.29394e-16
9817.71470 3.40254e-16
9819.37229 3.31883e-16
9821.03992 3.23505e-16
9822.69751 2.97931e-16
9824.35510 2.72387e-16
9826.01269 3.10219e-16
9827.68033 3.48024e-16
9829.33792 3.27178e-16
9830.99551 3.06347e-16
9832.65310 3.17917e-16
9834.32073 3.29476e-16
9835.97832 3.20120e-16
9837.63591 3.10760e-16
9839.30355 2.90935e-16
9840.96114 2.71139e-16
9842.61873 3.08761e-16
9844.27632 3.46384e-16
9845.94396 3.85933e-16
9847.60155 4.25454e-16
9849.25914 4.07275e-16
9850.91673 3.89094e-16
9852.58436 3.70658e-16
9854.24195 3.52222e-16
9855.89954 3.35888e-16
9857.56718 3.19562e-16
9859.22477 3.16863e-16
9860.88236 3.14166e-16
9862.53995 3.13368e-16
9864.20758 3.12598e-16
9865.86517 3.73917e-16
9867.52276 4.35201e-16
9869.18035 4.19393e-16
9870.84799 4.03599e-16
9872.50558 4.18000e-16
9874.16317 4.32411e-16
9875.83081 4.71722e-16
9877.48840 5.10982e-16
9879.14599 4.44257e-16
9880.80358 3.77536e-16
9882.47121 3.13488e-16
9884.12880 2.49496e-16
9885.78639 3.01346e-16
9887.44398 3.53185e-16
9889.11162 3.80808e-16
9890.76921 4.08422e-16
9892.42680 4.16841e-16
9894.09443 4.25263e-16
9895.75202 4.38076e-16
9897.40961 4.50885e-16
9899.06720 4.57713e-16
9900.73484 4.64501e-16
9902.39243 3.83686e-16
9904.05002 3.02907e-16
9905.70761 2.95094e-16
9907.37525 2.87280e-16
9909.03284 2.75051e-16
9910.69043 2.62828e-16
9912.35806 2.65991e-16
9914.01565 2.69175e-16
9915.67324 3.14537e-16
9917.33083 3.59869e-16
9918.99847 3.44184e-16
9920.65606 3.28512e-16
9922.31365 3.35602e-16
9923.98128 3.42694e-16
9925.63887 3.51714e-16
9927.29646 3.60738e-16
9928.95405 3.77886e-16
9930.62169 3.94990e-16
9932.27928 3.16020e-16
9933.93687 2.37078e-16
9935.59446 2.14878e-16
9937.26210 1.92725e-16
9938.91969 2.67245e-16
9940.57728 3.41743e-16
9942.23487 3.72275e-16
9943.90250 4.02793e-16
9945.56009 4.03012e-16
9947.21768 4.03206e-16
9948.88532 3.47463e-16
9950.54291 2.91777e-16
9952.20050 3.56081e-16
9953.85809 4.20354e-16
9955.52572 4.19360e-16
9957.18331 4.18346e-16
9958.84090 3.73382e-16
9960.50854 3.28431e-16
9962.16613 3.08826e-16
9963.82372 2.89227e-16
9965.48131 2.78011e-16
9967.14895 2.66788e-16
9968.80654 2.39722e-16
9970.46413 2.12665e-16
9972.12172 1.99737e-16
9973.78935 1.86815e-16
9975.44694 1.88557e-16
9977.10453 1.90323e-16
9978.77217 2.43426e-16
9980.42976 2.96502e-16
9982.08735 2.93779e-16
9983.74494 2.91068e-16
9985.41257 3.11111e-16
9987.07016 3.31158e-16
9988.72775 3.62458e-16
9990.39539 3.93737e-16
9992.05298 3.83353e-16
9993.71057 3.72954e-16
9995.36816 3.35697e-16
9997.03580 2.98426e-16
9998.69339 2.30859e-16
