# wavelength flux
3258.25000 -3.68280e-17
3261.28344 -9.60236e-18
3264.31688 7.67915e-17
3267.35032 -4.67255e-17
3270.38377 4.78514e-17
3273.41721 9.03828e-17
3276.45065 -4.62189e-17
3279.48409 1.56628e-17
3282.51753 9.74255e-17
3285.55097 8.08833e-17
3288.58442 1.08009e-16
3291.61786 -2.79496e-17
3294.65130 6.28205e-18
3297.68474 -1.84713e-19
3300.71818 -2.27950e-17
3303.75162 -3.32529e-17
3306.78507 5.30559e-17
3309.81851 -5.91947e-18
3312.85195 -2.59116e-17
3315.88539 3.71631e-17
3318.91883 9.40818e-17
3321.95227 -3.20035e-17
3324.98571 1.95971e-17
3328.01916 -4.40274e-17
3331.05260 -2.47587e-17
3334.08604 -2.46676e-17
3337.11948 -5.20073e-17
3340.15292 -2.97106e-17
3343.18636 2.71114e-17
3346.21981 5.85034e-17
3349.25325 8.05536e-17
3352.28669 7.91163e-17
3355.32013 1.14265e-17
3358.35357 -3.79708e-17
3361.38701 -2.27586e-17
3364.42045 3.62736e-17
3367.45390 4.41039e-17
3370.48734 3.88508e-17
3373.52078 1.10428e-17
3376.55422 1.15527e-16
3379.58766 3.57218e-17
3382.62110 -4.72673e-18
3385.65455 2.06129e-17
3388.68799 3.81979e-17
3391.72143 5.24744e-17
3394.75487 1.29672e-17
3397.78831 -4.30190e-17
3400.82175 5.53430e-17
3403.85520 9.64167e-17
3406.88864 2.10517e-17
3409.92208 -3.39216e-17
3412.95552 2.30758e-18
3415.98896 2.09939e-18
3419.02240 1.65719e-17
3422.05584 1.24153e-17
3425.08929 -1.97589e-17
3428.12273 3.38492e-17
3431.15617 5.37031e-17
3434.18961 5.72530e-17
3437.22305 4.14257e-17
3440.25649 2.89537e-17
3443.28994 5.28070e-17
3446.32338 8.21230e-17
3449.35682 9.81713e-18
3452.39026 -7.10714e-18
3455.42370 2.63562e-17
3458.45714 4.96816e-17
3461.49059 6.76770e-17
3464.52403 2.51581e-17
3467.55747 8.37483e-18
3470.59091 5.04998e-18
3473.62435 8.15683e-18
3476.65779 2.01136e-17
3479.69123 1.32361e-17
3482.72468 1.92648e-17
3485.75812 1.40754e-17
3488.79156 8.31130e-18
3491.82500 3.88231e-18
3494.85844 4.88224e-18
3497.89188 7.30296e-18
3500.92533 -3.72504e-17
3503.95877 7.42433e-19
3506.99221 1.03729e-17
3510.02565 3.40015e-17
3513.05909 1.81095e-17
3516.09253 5.14057e-18
3519.12597 -7.16119e-18
3522.15942 -4.08684e-18
3525.19286 4.84402e-18
3528.22630 6.08392e-18
3531.25974 -2.52697e-19
3534.29318 6.41787e-18
3537.32662 7.35006e-18
3540.36007 1.61039e-17
3543.39351 7.57778e-19
3546.42695 -7.97840e-18
3549.46039 3.00370e-18
3552.49383 -1.36814e-17
3555.52727 -1.55603e-17
3558.56072 -5.20445e-18
3561.59416 1.88026e-17
3564.62760 2.06747e-17
3567.66104 5.93625e-18
3570.69448 1.48787e-18
3573.72792 1.02230e-18
3576.76136 7.41690e-18
3579.79481 1.65278e-17
3582.82825 2.33339e-17
3585.86169 1.68721e-18
3588.89513 6.73564e-18
3591.92857 -3.25807e-19
3594.96201 -3.96663e-18
3597.99546 2.16997e-17
3601.02890 2.37089e-17
3604.06234 4.83123e-18
3607.09578 1.03576e-17
3610.12922 2.84463e-18
3613.16266 -3.12024e-18
3616.19610 2.51001e-20
3619.22955 -3.80522e-18
3622.26299 9.12861e-18
3625.29643 1.60792e-17
3628.32987 5.91368e-18
3631.36331 8.35063e-18
3634.39676 8.24035e-18
3637.43020 -5.85685e-18
3640.46364 -1.24083e-17
3643.49708 3.09358e-18
3646.53052 9.70525e-18
3649.56396 2.69660e-18
3652.59740 9.78120e-19
3655.63085 5.38143e-18
3658.66429 2.78646e-18
3661.69773 4.62516e-18
3664.73117 8.29825e-18
3667.76461 -2.12106e-18
3670.79805 1.11511e-17
3673.83149 1.39818e-18
3676.86494 2.77055e-19
3679.89838 4.65660e-18
3682.93182 6.86862e-18
3685.96526 2.33699e-17
3688.99870 1.87269e-17
3692.03215 1.78897e-17
3695.06559 1.40092e-17
3698.09903 1.86258e-17
3701.13247 1.61816e-17
3704.16591 9.42516e-18
3707.19935 1.23939e-17
3710.23279 5.71794e-18
3713.26624 1.74832e-19
3716.29968 -6.26282e-18
3719.33312 -1.81449e-19
3722.36656 1.93695e-17
3725.40000 5.03624e-18
3728.43344 -2.84683e-18
3731.46688 4.42870e-18
3734.50033 2.01128e-18
3737.53377 5.08115e-18
3740.56721 1.67945e-17
3743.60065 1.19315e-17
3746.63409 9.32653e-18
3749.66753 1.26789e-17
3752.70098 1.54120e-17
3755.73442 2.53192e-18
3758.76786 -8.20154e-18
3761.80130 2.19047e-18
3764.83474 1.53954e-17
3767.86818 8.30363e-18
3770.90162 6.61475e-18
3773.93507 7.94256e-18
3776.96851 1.14872e-17
3780.00195 3.52599e-18
3783.03539 1.67368e-18
3786.06883 1.00181e-17
3789.10228 1.31522e-17
3792.13572 1.09163e-17
3795.16916 7.22499e-18
3798.20260 7.32196e-18
3801.23604 1.02847e-17
3804.26948 1.26016e-17
3807.30292 1.00097e-17
3810.33637 1.18552e-17
3813.36981 1.99347e-17
3816.40325 9.66175e-18
3819.43669 3.92481e-18
3822.47013 1.65603e-18
3825.50357 1.16152e-17
3828.53701 1.20812e-17
3831.57046 1.92942e-17
3834.60390 1.22114e-17
3837.63734 6.72511e-18
3840.67078 1.28911e-17
3843.70422 1.22983e-17
3846.73767 1.35998e-17
3849.77111 1.12731e-17
3852.80455 6.31752e-18
3855.83799 1.12527e-17
3858.87143 1.91296e-17
3861.90487 9.98228e-18
3864.93831 5.76135e-18
3867.97176 1.27062e-17
3871.00520 1.64456e-17
3874.03864 1.47585e-17
3877.07208 1.43719e-17
3880.10552 6.81955e-18
3883.13896 5.33390e-18
3886.17240 3.01610e-18
3889.20585 2.26738e-18
3892.23929 1.74018e-17
3895.27273 1.17387e-17
3898.30617 1.79752e-17
3901.33961 1.30861e-17
3904.37305 1.57740e-17
3907.40650 1.86623e-17
3910.43994 1.21438e-17
3913.47338 6.08256e-18
3916.50682 7.87781e-18
3919.54026 3.40679e-18
3922.57370 4.61039e-18
3925.60714 5.47735e-18
3928.64059 7.82103e-18
3931.67403 1.30282e-17
3934.70747 1.02555e-17
3937.74091 3.22807e-18
3940.77435 5.05778e-18
3943.80780 1.92401e-17
3946.84124 1.32610e-17
3949.87468 2.81871e-18
3952.90812 4.94398e-18
3955.94156 1.60504e-18
3958.97500 1.28607e-17
3962.00844 2.01700e-17
3965.04189 1.35725e-17
3968.07533 1.02045e-17
3971.10877 8.53747e-18
3974.14221 1.73877e-17
3977.17565 1.77150e-17
3980.20909 4.89135e-18
3983.24253 6.94926e-18
3986.27598 7.92286e-18
3989.30942 9.73078e-18
3992.34286 1.03124e-17
3995.37630 5.54641e-18
3998.40974 7.25636e-18
4001.44319 1.18026e-17
4004.47663 5.65744e-18
4007.51007 1.50577e-17
4010.54351 5.13792e-18
4013.57695 -1.76524e-18
4016.61039 6.61263e-18
4019.64383 6.04781e-18
4022.67728 9.43570e-18
4025.71072 1.04831e-17
4028.74416 5.23447e-18
4031.77760 1.48053e-17
4034.81104 2.09914e-17
4037.84448 1.77377e-17
4040.87792 1.54746e-17
4043.91137 3.89987e-18
4046.94481 6.51889e-18
4049.97825 1.76672e-17
4053.01169 1.85833e-17
4056.04513 1.87251e-17
4059.07858 1.52189e-17
4062.11202 1.36485e-17
4065.14546 1.11446e-17
4068.17890 1.09970e-17
4071.21234 1.64743e-17
4074.24578 1.97318e-17
4077.27922 1.88245e-17
4080.31267 1.17339e-17
4083.34611 8.42589e-18
4086.37955 1.05616e-17
4089.41299 1.16568e-17
4092.44643 1.40555e-17
4095.47987 1.37180e-17
4098.51332 1.28291e-17
4101.54676 1.65539e-17
4104.58020 1.88703e-17
4107.61364 1.61201e-17
4110.64708 7.65657e-18
4113.68052 1.34414e-17
4116.71396 1.92896e-17
4119.74741 2.29401e-17
4122.78085 1.40413e-17
4125.81429 1.25366e-17
4128.84773 1.11656e-17
4131.88117 1.26903e-17
4134.91461 1.89326e-17
4137.94805 9.85627e-18
4140.98150 9.10107e-18
4144.01494 1.14837e-17
4147.04838 1.46689e-17
4150.08182 2.05488e-17
4153.11526 1.61434e-17
4156.14870 7.65924e-18
4159.18215 1.26229e-17
4162.21559 1.54674e-17
4165.24903 1.31359e-17
4168.28247 1.11385e-17
4171.31591 1.13124e-17
4174.34935 1.70107e-17
4177.38280 2.05863e-17
4180.41624 1.70716e-17
4183.44968 1.82493e-17
4186.48312 1.53405e-17
4189.51656 1.45573e-17
4192.55000 1.53350e-17
4195.58345 1.19532e-17
4198.61689 1.18094e-17
4201.65033 1.94882e-17
4204.68377 1.63901e-17
4207.71721 1.40944e-17
4210.75065 1.26897e-17
4213.78409 1.20742e-17
4216.81754 1.55048e-17
4219.85098 1.45082e-17
4222.88442 1.57864e-17
4225.91786 1.65546e-17
4228.95130 1.38825e-17
4231.98474 1.45030e-17
4235.01819 1.88980e-17
4238.05163 1.88828e-17
4241.08507 1.27376e-17
4244.11851 1.54799e-17
4247.15195 1.57998e-17
4250.18539 1.73547e-17
4253.21883 2.37599e-17
4256.25228 2.37671e-17
4259.28572 1.76384e-17
4262.31916 1.09082e-17
4265.35260 9.31102e-18
4268.38604 1.07942e-17
4271.41948 1.46887e-17
4274.45293 1.53731e-17
4277.48637 1.60433e-17
4280.51981 1.13187e-17
4283.55325 1.31083e-17
4286.58669 2.26160e-17
4289.62013 2.08086e-17
4292.65358 1.47765e-17
4295.68702 1.46431e-17
4298.72046 1.52482e-17
4301.75390 1.96040e-17
4304.78734 1.33409e-17
4307.82078 1.50805e-17
4310.85423 1.80231e-17
4313.88767 2.16536e-17
4316.92111 1.85330e-17
4319.95455 1.25202e-17
4322.98799 1.52481e-17
4326.02143 1.38701e-17
4329.05487 1.62456e-17
4332.08832 1.96384e-17
4335.12176 1.69526e-17
4338.15520 2.08056e-17
4341.18864 1.75273e-17
4344.22208 1.74657e-17
4347.25552 1.01896e-17
4350.28896 1.34314e-17
4353.32241 1.72700e-17
4356.35585 1.71061e-17
4359.38929 2.24652e-17
4362.42273 2.11647e-17
4365.45617 1.99835e-17
4368.48962 2.02423e-17
4371.52306 2.27086e-17
4374.55650 2.03161e-17
4377.58994 2.08767e-17
4380.62338 1.97124e-17
4383.65682 1.80245e-17
4386.69026 2.09731e-17
4389.72371 2.11442e-17
4392.75715 1.73244e-17
4395.79059 1.89796e-17
4398.82403 2.14071e-17
4401.85747 2.77802e-17
4404.89091 2.55904e-17
4407.92436 1.76770e-17
4410.95780 1.37358e-17
4413.99124 1.65153e-17
4417.02468 1.33625e-17
4420.05812 1.79782e-17
4423.09156 2.47748e-17
4426.12500 1.82763e-17
4429.15845 1.61565e-17
4432.19189 1.43084e-17
4435.22533 1.03411e-17
4438.25877 1.53912e-17
4441.29221 1.80324e-17
4444.32565 1.21104e-17
4447.35910 1.54055e-17
4450.39254 1.52549e-17
4453.42598 1.36205e-17
4456.45942 1.09868e-17
4459.49286 1.52250e-17
4462.52630 1.56947e-17
4465.55974 1.58149e-17
4468.59319 1.43296e-17
4471.62663 1.49062e-17
4474.66007 2.01237e-17
4477.69351 1.81930e-17
4480.72695 2.20652e-17
4483.76039 1.92323e-17
4486.79384 1.87419e-17
4489.82728 1.90025e-17
4492.86072 1.79725e-17
4495.89416 1.75505e-17
4498.92760 2.04746e-17
4501.96104 1.71060e-17
4504.99449 1.71474e-17
4508.02793 1.86783e-17
4511.06137 1.87135e-17
4514.09481 1.80971e-17
4517.12825 1.73975e-17
4520.16169 1.77911e-17
4523.19513 1.85400e-17
4526.22858 2.24520e-17
4529.26202 1.76804e-17
4532.29546 1.54203e-17
4535.32890 1.46859e-17
4538.36234 1.44542e-17
4541.39578 1.58885e-17
4544.42923 1.84542e-17
4547.46267 1.78970e-17
4550.49611 1.92965e-17
4553.52955 1.95417e-17
4556.56299 2.17888e-17
4559.59643 1.77991e-17
4562.62987 1.55085e-17
4565.66332 1.32174e-17
4568.69676 9.93559e-18
4571.73020 1.75231e-17
4574.76364 2.11905e-17
4577.79708 1.72281e-17
4580.83053 1.56414e-17
4583.86397 1.71514e-17
4586.89741 1.74961e-17
4589.93085 1.57804e-17
4592.96429 1.48031e-17
4595.99773 1.48528e-17
4599.03117 1.59646e-17
4602.06462 1.72654e-17
4605.09806 2.02805e-17
4608.13150 1.95390e-17
4611.16494 1.45028e-17
4614.19838 1.32599e-17
4617.23182 1.91566e-17
4620.26526 2.22287e-17
4623.29871 2.05601e-17
4626.33215 1.46088e-17
4629.36559 1.56727e-17
4632.39903 1.52345e-17
4635.43247 1.34117e-17
4638.46591 1.14938e-17
4641.49936 1.28938e-17
4644.53280 1.73872e-17
4647.56624 2.46161e-17
4650.59968 2.18680e-17
4653.63312 1.89860e-17
4656.66656 1.38039e-17
4659.70000 1.56593e-17
4662.73345 1.66409e-17
4665.76689 1.42238e-17
4668.80033 1.29692e-17
4671.83377 1.72133e-17
4674.86721 1.66854e-17
4677.90066 1.53975e-17
4680.93410 1.81388e-17
4683.96754 1.99634e-17
4687.00098 2.59877e-17
4690.03442 2.37871e-17
4693.06786 1.79577e-17
4696.10130 1.79172e-17
4699.13475 2.47283e-17
4702.16819 2.34788e-17
4705.20163 2.16479e-17
4708.23507 2.29306e-17
4711.26851 2.14694e-17
4714.30195 2.07856e-17
4717.33540 1.64959e-17
4720.36884 2.24067e-17
4723.40228 2.15103e-17
4726.43572 1.90609e-17
4729.46916 2.11178e-17
4732.50260 2.33569e-17
4735.53604 1.63469e-17
4738.56949 1.81770e-17
4741.60293 1.54401e-17
4744.63637 1.86373e-17
4747.66981 2.00329e-17
4750.70325 1.32059e-17
4753.73669 1.64509e-17
4756.77014 2.01879e-17
4759.80358 2.06908e-17
4762.83702 1.85560e-17
4765.87046 1.40121e-17
4768.90390 1.49155e-17
4771.93734 1.44205e-17
4774.97079 1.88581e-17
4778.00423 2.22135e-17
4781.03767 1.58841e-17
4784.07111 1.32939e-17
4787.10455 1.58168e-17
4790.13799 1.44657e-17
4793.17144 1.64569e-17
4796.20488 2.02917e-17
4799.23832 2.15944e-17
4802.27176 1.92366e-17
4805.30520 2.30323e-17
4808.33864 2.54267e-17
4811.37208 2.27455e-17
4814.40553 1.98153e-17
4817.43897 2.12859e-17
4820.47241 1.53064e-17
4823.50585 1.20075e-17
4826.53929 1.55918e-17
4829.57273 1.68063e-17
4832.60617 1.78591e-17
4835.63962 1.39297e-17
4838.67306 1.39565e-17
4841.70650 1.74161e-17
4844.73994 1.98726e-17
4847.77338 2.49921e-17
4850.80682 2.76978e-17
4853.84027 2.19835e-17
4856.87371 1.49856e-17
4859.90715 1.49347e-17
4862.94059 2.07588e-17
4865.97403 1.69493e-17
4869.00747 1.62098e-17
4872.04091 1.95372e-17
4875.07436 2.04606e-17
4878.10780 2.34660e-17
4881.14124 2.02107e-17
4884.17468 1.68303e-17
4887.20812 2.18948e-17
4890.24157 2.32017e-17
4893.27501 1.61059e-17
4896.30845 1.47743e-17
4899.34189 1.89143e-17
4902.37533 1.62411e-17
4905.40877 1.73653e-17
4908.44221 1.87676e-17
4911.47566 1.84806e-17
4914.50910 1.64559e-17
4917.54254 1.86839e-17
4920.57598 2.56498e-17
4923.60942 2.87079e-17
4926.64286 3.18312e-17
4929.67630 3.41574e-17
4932.70975 3.07410e-17
4935.74319 2.72628e-17
4938.77663 2.26554e-17
4941.81007 1.74498e-17
4944.84351 1.50521e-17
4947.87695 1.36492e-17
4950.91040 1.84207e-17
4953.94384 2.22095e-17
4956.97728 2.03268e-17
4960.01072 1.50492e-17
4963.04416 1.70290e-17
4966.07760 1.17509e-17
4969.11105 1.13497e-17
4972.14449 1.05634e-17
4975.17793 1.52276e-17
4978.21137 1.68440e-17
4981.24481 1.81576e-17
4984.27825 1.63425e-17
4987.31170 2.10413e-17
4990.34514 2.31667e-17
4993.37858 2.44003e-17
4996.41202 2.38958e-17
4999.44546 2.39375e-17
5002.47890 2.36574e-17
5005.51234 2.38759e-17
5008.54579 2.48018e-17
5011.57923 2.56831e-17
5014.61267 2.24764e-17
5017.64611 1.86981e-17
5020.67955 2.15928e-17
5023.71299 2.31344e-17
5026.74644 1.82244e-17
5029.77988 1.76990e-17
5032.81332 1.54092e-17
5035.84676 1.68432e-17
5038.88020 1.92055e-17
5041.91364 1.64321e-17
5044.94708 1.58232e-17
5047.98053 1.74001e-17
5051.01397 2.08481e-17
5054.04741 2.17799e-17
5057.08085 2.26917e-17
5060.11429 2.21517e-17
5063.14773 1.45935e-17
5066.18118 1.03924e-17
5069.21462 1.36194e-17
5072.24806 1.86738e-17
5075.28150 2.30791e-17
5078.31494 2.54980e-17
5081.34838 2.13374e-17
5084.38183 2.42394e-17
5087.41527 2.80146e-17
5090.44871 2.76694e-17
5093.48215 2.21518e-17
5096.51559 2.26215e-17
5099.54903 2.73334e-17
5102.58248 2.17584e-17
5105.61592 1.81800e-17
5108.64936 2.08802e-17
5111.68280 1.90754e-17
5114.71624 2.24121e-17
5117.74968 2.30117e-17
5120.78312 2.00253e-17
5123.81657 1.79219e-17
5126.85001 1.52157e-17
5129.88345 1.58017e-17
5132.91689 1.89065e-17
5135.95033 2.35327e-17
5138.98377 1.83665e-17
5142.01721 2.05038e-17
5145.05066 2.20334e-17
5148.08410 2.06110e-17
5151.11754 1.76557e-17
5154.15098 1.88527e-17
5157.18442 1.75882e-17
5160.21786 1.74003e-17
5163.25131 1.98076e-17
5166.28475 2.05306e-17
5169.31819 2.12797e-17
5172.35163 2.07223e-17
5175.38507 1.95063e-17
5178.41851 2.21038e-17
5181.45196 2.33495e-17
5184.48540 2.15678e-17
5187.51884 2.13450e-17
5190.55228 1.82285e-17
5193.58572 1.58138e-17
5196.61916 2.13888e-17
5199.65261 2.65069e-17
5202.68605 2.47671e-17
5205.71949 2.25180e-17
5208.75293 1.88634e-17
5211.78637 1.79862e-17
5214.81981 1.98464e-17
5217.85325 1.75267e-17
5220.88670 1.84855e-17
5223.92014 1.88420e-17
5226.95358 2.22251e-17
5229.98702 2.21875e-17
5233.02046 1.87053e-17
5236.05390 2.01160e-17
5239.08734 2.51335e-17
5242.12079 2.64043e-17
5245.15423 2.42021e-17
5248.18767 2.30669e-17
5251.22111 2.11861e-17
5254.25455 2.08363e-17
5257.28799 1.98327e-17
5260.32144 2.47571e-17
5263.35488 3.01578e-17
5266.38832 2.54121e-17
5269.42176 2.44275e-17
5272.45520 2.49835e-17
5275.48864 2.18958e-17
5278.52209 2.27438e-17
5281.55553 2.03606e-17
5284.58897 1.55934e-17
5287.62241 1.61870e-17
5290.65585 1.91330e-17
5293.68929 2.29690e-17
5296.72274 2.52131e-17
5299.75618 2.62655e-17
5302.78962 2.42974e-17
5305.82306 2.41993e-17
5308.85650 3.08783e-17
5311.88994 2.94538e-17
5314.92339 2.31670e-17
5317.95683 2.45899e-17
5320.99027 2.34683e-17
5324.02371 2.26233e-17
5327.05715 2.33651e-17
5330.09059 1.74107e-17
5333.12403 1.57266e-17
5336.15748 1.75705e-17
5339.19092 2.25763e-17
5342.22436 2.27916e-17
5345.25780 2.24478e-17
5348.29124 2.16771e-17
5351.32468 2.58038e-17
5354.35812 2.88784e-17
5357.39157 2.58175e-17
5360.42501 2.63833e-17
5363.45845 2.41068e-17
5366.49189 2.29470e-17
5369.52533 2.20443e-17
5372.55877 2.08237e-17
5375.59222 2.37557e-17
5378.62566 2.20903e-17
5381.65910 2.18509e-17
5384.69254 2.59039e-17
5387.72598 3.15997e-17
5390.75942 2.92680e-17
5393.79287 3.20624e-17
5396.82631 3.24019e-17
5399.85975 2.73450e-17
5402.89319 2.38081e-17
5405.92663 2.39116e-17
5408.96007 2.40405e-17
5411.99352 2.69330e-17
5415.02696 2.67660e-17
5418.06040 2.37861e-17
5421.09384 2.01689e-17
5424.12728 1.86811e-17
5427.16072 2.57874e-17
5430.19416 2.66806e-17
5433.22761 2.83484e-17
5436.26105 3.18702e-17
5439.29449 3.40792e-17
5442.32793 2.97681e-17
5445.36137 2.65835e-17
5448.39481 2.50892e-17
5451.42825 2.72956e-17
5454.46170 2.66928e-17
5457.49514 2.05944e-17
5460.52858 2.81041e-17
5463.56202 2.87090e-17
5466.59546 2.54866e-17
5469.62890 2.22790e-17
5472.66235 2.23979e-17
5475.69579 2.34251e-17
5478.72923 2.56866e-17
5481.76267 2.14969e-17
5484.79611 2.27323e-17
5487.82955 2.56826e-17
5490.86300 2.52379e-17
5493.89644 3.36301e-17
5496.92988 2.99382e-17
5499.96332 2.62140e-17
5502.99676 2.74388e-17
5506.03020 2.65840e-17
5509.06365 2.26587e-17
5512.09709 2.17217e-17
5515.13053 2.45082e-17
5518.16397 2.44010e-17
5521.19741 1.82907e-17
5524.23085 1.63100e-17
5527.26429 1.78243e-17
5530.29774 2.26186e-17
5533.33118 2.12446e-17
5536.36462 1.47540e-17
5539.39806 1.56676e-17
5542.43150 2.38150e-17
5545.46494 2.69747e-17
5548.49839 2.34902e-17
5551.53183 2.13475e-17
5554.56527 2.12103e-17
5557.59871 2.12087e-17
5560.63215 2.29939e-17
5563.66559 2.25838e-17
5566.69903 2.26040e-17
5569.73248 2.28272e-17
5572.76592 2.13578e-17
5575.79936 2.21130e-17
5578.83280 1.93665e-17
5581.86624 2.36476e-17
5584.89968 2.84505e-17
5587.93313 2.67351e-17
5590.96657 2.18586e-17
5594.00001 2.31190e-17
5597.03345 2.70604e-17
5600.06689 2.71753e-17
5603.10033 2.67757e-17
5606.13378 2.85267e-17
5609.16722 3.21821e-17
5612.20066 3.18582e-17
5615.23410 2.52270e-17
5618.26754 2.42762e-17
5621.30098 3.06264e-17
5624.33443 2.78374e-17
5627.36787 2.60829e-17
5630.40131 2.55213e-17
5633.43475 2.08342e-17
5636.46819 1.96253e-17
5639.50163 2.26779e-17
5642.53507 2.26437e-17
5645.56852 2.07251e-17
5648.60196 1.56446e-17
5651.63540 1.80260e-17
5654.66884 2.33807e-17
5657.70228 2.07250e-17
5660.73572 2.21427e-17
5663.76916 2.27905e-17
5666.80261 2.06372e-17
5669.83605 2.37514e-17
5672.86949 1.95868e-17
5675.90293 1.92765e-17
5678.93637 2.31798e-17
5681.96982 2.11977e-17
5685.00326 1.84786e-17
5688.03670 2.01373e-17
5691.07014 2.05940e-17
5694.10358 1.87788e-17
5697.13702 2.19794e-17
5700.17046 2.57850e-17
5703.20391 2.73448e-17
5706.23735 2.14462e-17
5709.27079 1.51825e-17
5712.30423 1.89621e-17
5715.33767 2.17017e-17
5718.37111 1.82183e-17
5721.40456 1.93838e-17
5724.43800 2.35920e-17
5727.47144 2.13063e-17
5730.50488 2.07743e-17
5733.53832 2.24571e-17
5736.57176 2.23763e-17
5739.60520 2.27623e-17
5742.63865 2.64262e-17
5745.67209 2.41236e-17
5748.70553 2.08850e-17
5751.73897 1.67923e-17
5754.77241 1.81458e-17
5757.80585 2.21701e-17
5760.83929 2.35518e-17
5763.87274 2.54228e-17
5766.90618 1.97857e-17
5769.93962 2.12148e-17
5772.97306 2.64179e-17
5776.00650 2.45354e-17
5779.03995 1.49570e-17
5782.07339 1.74105e-17
5785.10683 2.23906e-17
5788.14027 2.35383e-17
5791.17371 2.04422e-17
5794.20715 1.62785e-17
5797.24059 1.65028e-17
5800.27404 1.63237e-17
5803.30748 1.72263e-17
5806.34092 2.03450e-17
5809.37436 2.12753e-17
5812.40780 2.21549e-17
5815.44124 2.35239e-17
5818.47469 2.37632e-17
5821.50813 2.33485e-17
5824.54157 2.57688e-17
5827.57501 2.42496e-17
5830.60845 2.43072e-17
5833.64189 2.64265e-17
5836.67533 2.25324e-17
5839.70878 2.01257e-17
5842.74222 1.93818e-17
5845.77566 2.03499e-17
5848.80910 1.91726e-17
5851.84254 1.83710e-17
5854.87598 2.39650e-17
5857.90943 2.24872e-17
5860.94287 1.90634e-17
5863.97631 1.91360e-17
5867.00975 1.73032e-17
5870.04319 1.70643e-17
5873.07663 1.94554e-17
5876.11007 1.52760e-17
5879.14352 1.33938e-17
5882.17696 1.41507e-17
5885.21040 1.70981e-17
5888.24384 2.05789e-17
5891.27728 2.31859e-17
5894.31073 1.91001e-17
5897.34417 1.58315e-17
5900.37761 1.90572e-17
5903.41105 2.34510e-17
5906.44449 2.61052e-17
5909.47793 2.29225e-17
5912.51137 2.13900e-17
5915.54482 2.50782e-17
5918.57826 2.63109e-17
5921.61170 2.61114e-17
5924.64514 2.37932e-17
5927.67858 2.20029e-17
5930.71202 2.12675e-17
5933.74546 2.18074e-17
5936.77891 2.42492e-17
5939.81235 2.44479e-17
5942.84579 2.93391e-17
5945.87923 3.36762e-17
5948.91267 2.81396e-17
5951.94611 2.67029e-17
5954.97956 2.95080e-17
5958.01300 3.16516e-17
5961.04644 3.19126e-17
5964.07988 2.93350e-17
5967.11332 2.41760e-17
5970.14676 2.59588e-17
5973.18020 2.63103e-17
5976.21365 2.67788e-17
5979.24709 2.50007e-17
5982.28053 2.81060e-17
5985.31397 2.58881e-17
5988.34741 2.73752e-17
5991.38086 2.89833e-17
5994.41430 3.14905e-17
5997.44774 2.82786e-17
6000.48118 2.66362e-17
6003.51462 2.67504e-17
6006.54806 2.43835e-17
6009.58150 2.40396e-17
6012.61495 2.58832e-17
6015.64839 2.72083e-17
6018.68183 2.50918e-17
6021.71527 2.20177e-17
6024.74871 2.03567e-17
6027.78215 1.91922e-17
6030.81560 1.92919e-17
6033.84904 2.07588e-17
6036.88248 2.21884e-17
6039.91592 1.67691e-17
6042.94936 1.44489e-17
6045.98280 2.34401e-17
6049.01624 2.07952e-17
6052.04969 2.26160e-17
6055.08313 2.25406e-17
6058.11657 1.99244e-17
6061.15001 2.26427e-17
6064.18345 2.44195e-17
6067.21689 2.41506e-17
6070.25034 2.52715e-17
6073.28378 2.32104e-17
6076.31722 2.27614e-17
6079.35066 2.43751e-17
6082.38410 2.20377e-17
6085.41754 1.91898e-17
6088.45099 2.33665e-17
6091.48443 2.38190e-17
6094.51787 1.96303e-17
6097.55131 2.06393e-17
6100.58475 2.38584e-17
6103.61819 2.36961e-17
6106.65163 2.11036e-17
6109.68508 1.93413e-17
6112.71852 1.94227e-17
6115.75196 1.93614e-17
6118.78540 2.04490e-17
6121.81884 2.14986e-17
6124.85228 1.89663e-17
6127.88573 1.78174e-17
6130.91917 2.06702e-17
6133.95261 2.34973e-17
6136.98605 2.08814e-17
6140.01949 2.23110e-17
6143.05293 2.29201e-17
6146.08637 2.09017e-17
6149.11982 2.26217e-17
6152.15326 1.97993e-17
6155.18670 2.12929e-17
6158.22014 2.50921e-17
6161.25358 2.24972e-17
6164.28702 2.32350e-17
6167.32047 2.55678e-17
6170.35391 2.11247e-17
6173.38735 1.82332e-17
6176.42079 1.92968e-17
6179.45423 2.40004e-17
6182.48767 2.61307e-17
6185.52111 2.33228e-17
6188.55456 2.28997e-17
6191.58800 2.67756e-17
6194.62144 2.80929e-17
6197.65488 2.61225e-17
6200.68832 2.76255e-17
6203.72177 2.59960e-17
6206.75521 2.12165e-17
6209.78865 2.11222e-17
6212.82209 2.04788e-17
6215.85553 1.97163e-17
6218.88897 2.56441e-17
6221.92241 2.56830e-17
6224.95586 2.57314e-17
6227.98930 2.79834e-17
6231.02274 2.98566e-17
6234.05618 3.15170e-17
6237.08962 3.26910e-17
6240.12306 2.71014e-17
6243.15650 2.34198e-17
6246.18995 2.68688e-17
6249.22339 2.92943e-17
6252.25683 2.90033e-17
6255.29027 2.71898e-17
6258.32371 2.40334e-17
6261.35715 2.55841e-17
6264.39060 2.74645e-17
6267.42404 2.31600e-17
6270.45748 2.36814e-17
6273.49092 2.74436e-17
6276.52436 2.28861e-17
6279.55780 1.86249e-17
6282.59125 1.85013e-17
6285.62469 1.69708e-17
6288.65813 1.54655e-17
6291.69157 2.11569e-17
6294.72501 2.46891e-17
6297.75845 1.63500e-17
6300.79190 2.12805e-17
6303.82534 3.05612e-17
6306.85878 2.38842e-17
6309.89222 2.30119e-17
6312.92566 2.49221e-17
6315.95910 2.63375e-17
6318.99254 2.72157e-17
6322.02599 2.85767e-17
6325.05943 2.82481e-17
6328.09287 2.83888e-17
6331.12631 2.90874e-17
6334.15975 2.79430e-17
6337.19319 3.00250e-17
6340.22663 3.25274e-17
6343.26008 2.96243e-17
6346.29352 2.58237e-17
6349.32696 2.34704e-17
6352.36040 1.94522e-17
6355.39384 1.99009e-17
6358.42728 2.24541e-17
6361.46073 2.08434e-17
6364.49417 1.92951e-17
6367.52761 1.77391e-17
6370.56105 2.14227e-17
6373.59449 2.14725e-17
6376.62793 2.20671e-17
6379.66138 2.01275e-17
6382.69482 1.87093e-17
6385.72826 2.08961e-17
6388.76170 2.40576e-17
6391.79514 2.66860e-17
6394.82858 2.71504e-17
6397.86203 2.54216e-17
6400.89547 2.64230e-17
6403.92891 2.52815e-17
6406.96235 2.20111e-17
6409.99579 2.46487e-17
6413.02923 2.24313e-17
6416.06268 1.86367e-17
6419.09612 1.74412e-17
6422.12956 2.12493e-17
6425.16300 2.49026e-17
6428.19644 2.64045e-17
6431.22988 2.91374e-17
6434.26332 2.69637e-17
6437.29677 2.46460e-17
6440.33021 2.14159e-17
6443.36365 2.02878e-17
6446.39709 2.40718e-17
6449.43053 2.62051e-17
6452.46397 2.69128e-17
6455.49741 2.48611e-17
6458.53086 2.69876e-17
6461.56430 3.10078e-17
6464.59774 3.16902e-17
6467.63118 3.08577e-17
6470.66462 2.57750e-17
6473.69806 2.48629e-17
6476.73151 2.60200e-17
6479.76495 2.43898e-17
6482.79839 2.55179e-17
6485.83183 2.30371e-17
6488.86527 2.26061e-17
6491.89871 2.59507e-17
6494.93216 2.97215e-17
6497.96560 3.06911e-17
6500.99904 2.91567e-17
6504.03248 2.66074e-17
6507.06592 2.99324e-17
6510.09936 3.50218e-17
6513.13281 3.65199e-17
6516.16625 3.30979e-17
6519.19969 3.10986e-17
6522.23313 2.76850e-17
6525.26657 2.60531e-17
6528.30001 2.85741e-17
6531.33345 2.92492e-17
6534.36690 3.31621e-17
6537.40034 3.23646e-17
6540.43378 2.93109e-17
6543.46722 3.35656e-17
6546.50066 3.34097e-17
6549.53410 3.08031e-17
6552.56754 2.84457e-17
6555.60099 3.16021e-17
6558.63443 3.48848e-17
6561.66787 3.57215e-17
6564.70131 3.32446e-17
6567.73475 3.33120e-17
6570.76819 2.74219e-17
6573.80164 1.92243e-17
6576.83508 2.06360e-17
6579.86852 2.59149e-17
6582.90196 2.79004e-17
6585.93540 2.23729e-17
6588.96884 1.96673e-17
6592.00229 2.78686e-17
6595.03573 3.23486e-17
6598.06917 3.17235e-17
6601.10261 2.90393e-17
6604.13605 3.33537e-17
6607.16949 2.98551e-17
6610.20294 2.78787e-17
6613.23638 2.95643e-17
6616.26982 2.95454e-17
6619.30326 2.78292e-17
6622.33670 2.44654e-17
6625.37014 2.60234e-17
6628.40359 2.23574e-17
6631.43703 2.40194e-17
6634.47047 2.96639e-17
6637.50391 4.38570e-17
6640.53735 6.20770e-17
6643.57079 7.65326e-17
6646.60423 9.45093e-17
6649.63768 1.23824e-16
6652.67112 1.52916e-16
6655.70456 1.63896e-16
6658.73800 1.56732e-16
6661.77144 8.99156e-17
6664.80488 4.99627e-17
6667.83832 4.89839e-17
6670.87177 5.54133e-17
6673.90521 6.57038e-17
6676.93865 7.88674e-17
6679.97209 6.43834e-17
6683.00553 3.92746e-17
6686.03897 2.63355e-17
6689.07242 2.57111e-17
6692.10586 2.92576e-17
6695.13930 3.08644e-17
6698.17274 2.82714e-17
6701.20618 2.50534e-17
6704.23962 2.42055e-17
6707.27307 2.39515e-17
6710.30651 2.18036e-17
6713.33995 1.94007e-17
6716.37339 2.35942e-17
6719.40683 2.32170e-17
6722.44027 2.30259e-17
6725.47372 2.20538e-17
6728.50716 2.07522e-17
6731.54060 1.90687e-17
6734.57404 2.00765e-17
6737.60748 1.77074e-17
6740.64092 1.37600e-17
6743.67436 1.52997e-17
6746.70781 1.71081e-17
6749.74125 1.87891e-17
6752.77469 2.23171e-17
6755.80813 2.40486e-17
6758.84157 2.92769e-17
6761.87501 3.43152e-17
6764.90845 3.29436e-17
6767.94190 3.70738e-17
6770.97534 3.78646e-17
6774.00878 3.70578e-17
6777.04222 3.69481e-17
6780.07566 2.96248e-17
6783.10911 2.67298e-17
6786.14255 2.75303e-17
6789.17599 2.37627e-17
6792.20943 2.28966e-17
6795.24287 2.45845e-17
6798.27631 2.49146e-17
6801.30975 2.92239e-17
6804.34320 3.06602e-17
6807.37664 3.40931e-17
6810.41008 3.68014e-17
6813.44352 3.47114e-17
6816.47696 3.58496e-17
6819.51040 3.13935e-17
6822.54385 2.95252e-17
6825.57729 2.94630e-17
6828.61073 2.99780e-17
6831.64417 2.62155e-17
6834.67761 1.63910e-17
6837.71105 1.68700e-17
6840.74449 1.72730e-17
6843.77794 1.83201e-17
6846.81138 2.01277e-17
6849.84482 2.17925e-17
6852.87826 1.82377e-17
6855.91170 1.79366e-17
6858.94514 2.04405e-17
6861.97858 1.90441e-17
6865.01203 2.03986e-17
6868.04547 2.16631e-17
6871.07891 1.61390e-17
6874.11235 1.60472e-17
6877.14579 1.64642e-17
6880.17923 1.32481e-17
6883.21268 1.73460e-17
6886.24612 1.54235e-17
6889.27956 1.43503e-17
6892.31300 1.64941e-17
6895.34644 1.64252e-17
6898.37988 1.84004e-17
6901.41333 1.83478e-17
6904.44677 1.29583e-17
6907.48021 1.11476e-17
6910.51365 1.87059e-17
6913.54709 1.74279e-17
6916.58053 1.40881e-17
6919.61398 2.14378e-17
6922.64742 2.24528e-17
6925.68086 2.01031e-17
6928.71430 1.60934e-17
6931.74774 1.77020e-17
6934.78118 2.22989e-17
6937.81462 2.03170e-17
6940.84807 1.78316e-17
6943.88151 1.92449e-17
6946.91495 2.02420e-17
6949.94839 2.00781e-17
6952.98183 1.87535e-17
6956.01527 1.88623e-17
6959.04872 1.93326e-17
6962.08216 2.11776e-17
6965.11560 1.98953e-17
6968.14904 1.59975e-17
6971.18248 1.51108e-17
6974.21592 1.34913e-17
6977.24936 1.42138e-17
6980.28281 1.68483e-17
6983.31625 1.66619e-17
6986.34969 1.25071e-17
6989.38313 1.50649e-17
6992.41657 2.07075e-17
6995.45002 1.97727e-17
6998.48346 1.64673e-17
7001.51690 1.54884e-17
7004.55034 1.55637e-17
7007.58378 1.52053e-17
7010.61722 1.31656e-17
7013.65066 1.54823e-17
7016.68411 1.71460e-17
7019.71755 1.61822e-17
7022.75099 1.64484e-17
7025.78443 1.27107e-17
7028.81787 1.36330e-17
7031.85131 1.35202e-17
7034.88476 1.44561e-17
7037.91820 1.69542e-17
7040.95164 1.78720e-17
7043.98508 1.80066e-17
7047.01852 1.88542e-17
7050.05196 1.78684e-17
7053.08540 1.74167e-17
7056.11885 1.37727e-17
7059.15229 1.26975e-17
7062.18573 1.41390e-17
7065.21917 1.49750e-17
7068.25261 1.86715e-17
7071.28605 1.80387e-17
7074.31949 1.46095e-17
7077.35294 2.09644e-17
7080.38638 2.36143e-17
7083.41982 1.76622e-17
7086.45326 1.66776e-17
7089.48670 1.96169e-17
7092.52015 1.92380e-17
7095.55359 2.06374e-17
7098.58703 2.32658e-17
7101.62047 2.48796e-17
7104.65391 2.09290e-17
7107.68735 2.01494e-17
7110.72079 1.98342e-17
7113.75424 1.71543e-17
7116.78768 1.78671e-17
7119.82112 2.16898e-17
7122.85456 2.48335e-17
7125.88800 2.24261e-17
7128.92144 2.14460e-17
7131.95489 2.29905e-17
7134.98833 2.58654e-17
7138.02177 2.99950e-17
7141.05521 3.55993e-17
7144.08865 4.20313e-17
7147.12209 4.50155e-17
7150.15553 4.96829e-17
7153.18898 4.84077e-17
7156.22242 4.66744e-17
7159.25586 5.22549e-17
7162.28930 5.76396e-17
7165.32274 5.71632e-17
7168.35618 5.27973e-17
7171.38963 4.90362e-17
7174.42307 4.68267e-17
7177.45651 4.11509e-17
7180.48995 3.66176e-17
7183.52339 2.66561e-17
7186.55683 2.82775e-17
7189.59027 3.17874e-17
7192.62372 2.62483e-17
7195.65716 2.32082e-17
7198.69060 2.47525e-17
7201.72404 2.50958e-17
7204.75748 2.10758e-17
7207.79092 1.75315e-17
7210.82437 2.29043e-17
7213.85781 2.44944e-17
7216.89125 1.40578e-17
7219.92469 1.15814e-17
7222.95813 1.49672e-17
7225.99157 2.16009e-17
7229.02502 2.22803e-17
7232.05846 1.81424e-17
7235.09190 1.96168e-17
7238.12534 2.00167e-17
7241.15878 1.75254e-17
7244.19222 1.56829e-17
7247.22566 1.41581e-17
7250.25911 1.60306e-17
7253.29255 1.94861e-17
7256.32599 1.50965e-17
7259.35943 1.12146e-17
7262.39287 1.46135e-17
7265.42631 1.45058e-17
7268.45976 1.53299e-17
7271.49320 1.96429e-17
7274.52664 1.95228e-17
7277.56008 1.79461e-17
7280.59352 1.83097e-17
7283.62696 2.16105e-17
7286.66040 2.02064e-17
7289.69385 2.15547e-17
7292.72729 2.44695e-17
7295.76073 2.20851e-17
7298.79417 1.81900e-17
7301.82761 1.73673e-17
7304.86106 1.70190e-17
7307.89450 2.00350e-17
7310.92794 2.71194e-17
7313.96138 2.83253e-17
7316.99482 2.09165e-17
7320.02826 1.79822e-17
7323.06170 2.36906e-17
7326.09515 2.91540e-17
7329.12859 2.90509e-17
7332.16203 2.32304e-17
7335.19547 2.70896e-17
7338.22891 2.64124e-17
7341.26235 1.38318e-17
7344.29579 1.24125e-17
7347.32924 2.10139e-17
7350.36268 2.29818e-17
7353.39612 2.07598e-17
7356.42956 2.10273e-17
7359.46300 2.45072e-17
7362.49644 2.86001e-17
7365.52989 2.88890e-17
7368.56333 2.67266e-17
7371.59677 3.08480e-17
7374.63021 3.06691e-17
7377.66365 2.84517e-17
7380.69709 2.80627e-17
7383.73054 2.98512e-17
7386.76398 2.68228e-17
7389.79742 2.17484e-17
7392.83086 2.45815e-17
7395.86430 3.03616e-17
7398.89774 2.99926e-17
7401.93119 2.94224e-17
7404.96463 3.24619e-17
7407.99807 3.06445e-17
7411.03151 2.70235e-17
7414.06495 2.93441e-17
7417.09839 2.83516e-17
7420.13183 2.73692e-17
7423.16528 2.87165e-17
7426.19872 2.87465e-17
7429.23216 2.77432e-17
7432.26560 2.73486e-17
7435.29904 2.64251e-17
7438.33248 2.69736e-17
7441.36593 2.69961e-17
7444.39937 2.26366e-17
7447.43281 2.00731e-17
7450.46625 2.53401e-17
7453.49969 2.96044e-17
7456.53313 2.28512e-17
7459.56657 1.93993e-17
7462.60002 2.21712e-17
7465.63346 2.12786e-17
7468.66690 2.15279e-17
7471.70034 2.26372e-17
7474.73378 2.02161e-17
7477.76722 1.99685e-17
7480.80067 2.67120e-17
7483.83411 2.69745e-17
7486.86755 2.37478e-17
7489.90099 2.36702e-17
7492.93443 1.89410e-17
7495.96787 1.93596e-17
7499.00132 2.07014e-17
7502.03476 2.16870e-17
7505.06820 2.05811e-17
7508.10164 2.47099e-17
7511.13508 2.60565e-17
7514.16852 2.45103e-17
7517.20197 2.33585e-17
7520.23541 2.04585e-17
7523.26885 1.91273e-17
7526.30229 2.19943e-17
7529.33573 2.17165e-17
7532.36917 1.87809e-17
7535.40261 1.93414e-17
7538.43606 1.96217e-17
7541.46950 1.91291e-17
7544.50294 1.92377e-17
7547.53638 2.33907e-17
7550.56982 2.29543e-17
7553.60326 2.17435e-17
7556.63670 2.48324e-17
7559.67015 2.69327e-17
7562.70359 2.68697e-17
7565.73703 2.80581e-17
7568.77047 2.71332e-17
7571.80391 2.59148e-17
7574.83735 2.77216e-17
7577.87080 2.69858e-17
7580.90424 2.11922e-17
7583.93768 1.87346e-17
7586.97112 2.61910e-17
7590.00456 2.31474e-17
7593.03800 1.91972e-17
7596.07144 2.22194e-17
7599.10489 2.25883e-17
7602.13833 1.79099e-17
7605.17177 1.20356e-17
7608.20521 1.49929e-17
7611.23865 1.98101e-17
7614.27210 1.80486e-17
7617.30554 1.49017e-17
7620.33898 1.31669e-17
7623.37242 1.39500e-17
7626.40586 1.88809e-17
7629.43930 1.95963e-17
7632.47274 1.43011e-17
7635.50619 2.15863e-17
7638.53963 2.21290e-17
7641.57307 1.78031e-17
7644.60651 1.08825e-17
7647.63995 1.38109e-17
7650.67339 1.86983e-17
7653.70683 1.77157e-17
7656.74028 1.84143e-17
7659.77372 2.13654e-17
7662.80716 1.98496e-17
7665.84060 1.42354e-17
7668.87404 1.44239e-17
7671.90748 1.51225e-17
7674.94093 1.17588e-17
7677.97437 1.15921e-17
7681.00781 1.26240e-17
7684.04125 1.36078e-17
7687.07469 1.45158e-17
7690.10813 1.44819e-17
7693.14158 1.51893e-17
7696.17502 1.59230e-17
7699.20846 1.80850e-17
7702.24190 1.68099e-17
7705.27534 1.15885e-17
7708.30878 1.25204e-17
7711.34223 1.37116e-17
7714.37567 1.36476e-17
7717.40911 1.25440e-17
7720.44255 1.22287e-17
7723.47599 1.04917e-17
7726.50943 1.53435e-17
7729.54288 1.43279e-17
7732.57632 1.58454e-17
7735.60976 1.55665e-17
7738.64320 1.27151e-17
7741.67664 1.15937e-17
7744.71008 1.64451e-17
7747.74352 2.43745e-17
7750.77697 2.24279e-17
7753.81041 1.77493e-17
7756.84385 1.80035e-17
7759.87729 1.88710e-17
7762.91073 2.19834e-17
7765.94417 2.36214e-17
7768.97761 2.35908e-17
7772.01106 2.14988e-17
7775.04450 2.18672e-17
7778.07794 2.33431e-17
7781.11138 1.97910e-17
7784.14482 1.75825e-17
7787.17826 2.03859e-17
7790.21171 1.90704e-17
7793.24515 1.45168e-17
7796.27859 1.44358e-17
7799.31203 1.65791e-17
7802.34547 1.93791e-17
7805.37891 2.18112e-17
7808.41236 2.07290e-17
7811.44580 2.69871e-17
7814.47924 2.69503e-17
7817.51268 2.25763e-17
7820.54612 1.75533e-17
7823.57956 1.83777e-17
7826.61301 1.85140e-17
7829.64645 1.66341e-17
7832.67989 2.24938e-17
7835.71333 2.23384e-17
7838.74677 1.86983e-17
7841.78021 1.58990e-17
7844.81365 1.31710e-17
7847.84710 1.52289e-17
7850.88054 1.78794e-17
7853.91398 1.74646e-17
7856.94742 1.93148e-17
7859.98086 1.97543e-17
7863.01430 2.22745e-17
7866.04774 2.40167e-17
7869.08119 1.76298e-17
7872.11463 1.50346e-17
7875.14807 2.24219e-17
7878.18151 2.65826e-17
7881.21495 2.40012e-17
7884.24839 2.01601e-17
7887.28184 2.06064e-17
7890.31528 1.89963e-17
7893.34872 1.97246e-17
7896.38216 2.17959e-17
7899.41560 2.28253e-17
7902.44904 2.31999e-17
7905.48249 2.41962e-17
7908.51593 2.44156e-17
7911.54937 2.11072e-17
7914.58281 1.60534e-17
7917.61625 1.42555e-17
7920.64969 1.89996e-17
7923.68314 2.36604e-17
7926.71658 1.88558e-17
7929.75002 1.22158e-17
7932.78346 1.18023e-17
7935.81690 1.63498e-17
7938.85034 2.07562e-17
7941.88378 1.93805e-17
7944.91723 1.67414e-17
7947.95067 1.76607e-17
7950.98411 1.69800e-17
7954.01755 1.77131e-17
7957.05099 2.24674e-17
7960.08443 1.86720e-17
7963.11787 1.29943e-17
7966.15132 1.52115e-17
7969.18476 2.21445e-17
7972.21820 2.57244e-17
7975.25164 2.44595e-17
7978.28508 2.22050e-17
7981.31852 1.93947e-17
7984.35197 2.19604e-17
7987.38541 2.54081e-17
7990.41885 2.23445e-17
7993.45229 2.47001e-17
7996.48573 2.95721e-17
7999.51917 2.16270e-17
8002.55262 1.84534e-17
8005.58606 1.73655e-17
8008.61950 1.75821e-17
8011.65294 1.87603e-17
8014.68638 2.05345e-17
8017.71982 2.30977e-17
8020.75327 2.07851e-17
8023.78671 2.36809e-17
8026.82015 2.60313e-17
8029.85359 1.93354e-17
8032.88703 1.48276e-17
8035.92047 1.52743e-17
8038.95392 1.77696e-17
8041.98736 1.75560e-17
8045.02080 1.16715e-17
8048.05424 1.14744e-17
8051.08768 1.45977e-17
8054.12112 1.40518e-17
8057.15456 1.56031e-17
8060.18801 1.42483e-17
8063.22145 1.32695e-17
8066.25489 1.40737e-17
8069.28833 1.46525e-17
8072.32177 1.36710e-17
8075.35521 1.31647e-17
8078.38865 1.74338e-17
8081.42210 1.42180e-17
8084.45554 1.40786e-17
8087.48898 1.36808e-17
8090.52242 1.29283e-17
8093.55586 1.67037e-17
8096.58931 1.83806e-17
8099.62275 1.60245e-17
8102.65619 1.57001e-17
8105.68963 1.76913e-17
8108.72307 1.33386e-17
8111.75651 8.50174e-18
8114.78995 1.20586e-17
8117.82340 1.09788e-17
8120.85684 9.77994e-18
8123.89028 1.46769e-17
8126.92372 1.49512e-17
8129.95716 1.56912e-17
8132.99060 1.80887e-17
8136.02405 1.53222e-17
8139.05749 1.56335e-17
8142.09093 1.84571e-17
8145.12437 1.85667e-17
8148.15781 1.51220e-17
8151.19125 1.28092e-17
8154.22469 1.28938e-17
8157.25814 8.69806e-18
8160.29158 9.09139e-18
8163.32502 9.66443e-18
8166.35846 1.29966e-17
8169.39190 1.28199e-17
8172.42534 1.37397e-17
8175.45878 1.33428e-17
8178.49223 1.05858e-17
8181.52567 1.15712e-17
8184.55911 1.36383e-17
8187.59255 1.20626e-17
8190.62599 1.17393e-17
8193.65943 1.17977e-17
8196.69288 1.03224e-17
8199.72632 2.14033e-17
8202.75976 3.28752e-17
8205.79320 2.32518e-17
8208.82664 1.48741e-17
8211.86008 1.88380e-17
8214.89353 1.86101e-17
8217.92697 1.15101e-17
8220.96041 1.09492e-17
8223.99385 1.38909e-17
8227.02729 1.07827e-17
8230.06073 7.96925e-18
8233.09418 1.15205e-17
8236.12762 1.47154e-17
8239.16106 1.22751e-17
8242.19450 1.20107e-17
8245.22794 1.26098e-17
8248.26138 1.34520e-17
8251.29483 1.91601e-17
8254.32827 1.91375e-17
8257.36171 1.56290e-17
8260.39515 1.28020e-17
8263.42859 1.31432e-17
8266.46203 1.80511e-17
8269.49547 1.75966e-17
8272.52892 1.39296e-17
8275.56236 1.45293e-17
8278.59580 1.35732e-17
8281.62924 1.74927e-17
8284.66268 1.30567e-17
8287.69612 1.01604e-17
8290.72956 1.62202e-17
8293.76301 1.97623e-17
8296.79645 2.30998e-17
8299.82989 2.19864e-17
8302.86333 1.28736e-17
8305.89677 7.55456e-18
8308.93022 9.24255e-18
8311.96366 1.66111e-17
8314.99710 2.00654e-17
8318.03054 1.60794e-17
8321.06398 1.58085e-17
8324.09742 2.00121e-17
8327.13086 2.82236e-17
8330.16431 2.60544e-17
8333.19775 2.17647e-17
8336.23119 2.65731e-17
8339.26463 2.82291e-17
8342.29807 2.83796e-17
8345.33151 3.12473e-17
8348.36495 2.49800e-17
8351.39840 2.48557e-17
8354.43184 3.06565e-17
8357.46528 2.62484e-17
8360.49872 2.18122e-17
8363.53216 1.75294e-17
8366.56560 1.75852e-17
8369.59905 1.72180e-17
8372.63249 2.15142e-17
8375.66593 2.49968e-17
8378.69937 2.03563e-17
8381.73281 1.81721e-17
8384.76625 1.76350e-17
8387.79969 1.55892e-17
8390.83314 1.74338e-17
8393.86658 1.77430e-17
8396.90002 1.34535e-17
8399.93346 1.46936e-17
8402.96690 1.09999e-17
8406.00035 9.62955e-18
8409.03379 1.40523e-17
8412.06723 1.67525e-17
8415.10067 1.77942e-17
8418.13411 1.70340e-17
8421.16755 1.71701e-17
8424.20099 2.31870e-17
8427.23444 2.42912e-17
8430.26788 2.21272e-17
8433.30132 2.32585e-17
8436.33476 1.83370e-17
8439.36820 2.02537e-17
8442.40164 1.99883e-17
8445.43508 1.93371e-17
8448.46853 2.10487e-17
8451.50197 1.79197e-17
8454.53541 2.04991e-17
8457.56885 2.88482e-17
8460.60229 2.42114e-17
8463.63573 1.71487e-17
8466.66918 1.32147e-17
8469.70262 1.67167e-17
8472.73606 1.66921e-17
8475.76950 1.65977e-17
8478.80294 1.70742e-17
8481.83638 1.57612e-17
8484.86983 1.61077e-17
8487.90327 1.53561e-17
8490.93671 1.59547e-17
8493.97015 2.01920e-17
8497.00359 1.99231e-17
8500.03703 1.69657e-17
8503.07048 1.33995e-17
8506.10392 2.02305e-17
8509.13736 1.93779e-17
8512.17080 1.56669e-17
8515.20424 1.31545e-17
8518.23768 1.72753e-17
8521.27112 1.69887e-17
8524.30457 1.22380e-17
8527.33801 1.42829e-17
8530.37145 1.67510e-17
8533.40489 1.58224e-17
8536.43833 1.71071e-17
8539.47177 1.76193e-17
8542.50521 1.53246e-17
8545.53866 1.61383e-17
8548.57210 2.10058e-17
8551.60554 1.90779e-17
8554.63898 1.61619e-17
8557.67242 2.22202e-17
8560.70586 2.53843e-17
8563.73931 2.17171e-17
8566.77275 2.09806e-17
8569.80619 2.49740e-17
8572.83963 2.97845e-17
8575.87307 2.37057e-17
8578.90651 2.31510e-17
8581.93996 2.55999e-17
8584.97340 2.62649e-17
8588.00684 2.03150e-17
8591.04028 2.28697e-17
8594.07372 2.70638e-17
8597.10716 2.60140e-17
8600.14061 3.10684e-17
8603.17405 3.63165e-17
8606.20749 3.40330e-17
8609.24093 3.48150e-17
8612.27437 3.48519e-17
8615.30781 3.31150e-17
8618.34125 2.89617e-17
8621.37470 3.21773e-17
8624.40814 3.66924e-17
8627.44158 2.79133e-17
8630.47502 1.82767e-17
8633.50846 1.77815e-17
8636.54190 1.96682e-17
8639.57535 2.63586e-17
8642.60879 3.61823e-17
8645.64223 3.75638e-17
8648.67567 4.41083e-17
8651.70911 5.57823e-17
8654.74255 4.67125e-17
8657.77599 4.41580e-17
8660.80944 4.41113e-17
8663.84288 5.32153e-17
8666.87632 5.41300e-17
8669.90976 4.35578e-17
8672.94320 4.01153e-17
8675.97665 3.55439e-17
8679.01009 3.14439e-17
8682.04353 3.76045e-17
8685.07697 3.56979e-17
8688.11041 3.86781e-17
8691.14385 3.50621e-17
8694.17729 3.05189e-17
8697.21074 2.77117e-17
8700.24418 3.06979e-17
8703.27762 3.17067e-17
8706.31106 2.78275e-17
8709.34450 2.45813e-17
8712.37794 2.43374e-17
8715.41138 2.74378e-17
8718.44483 2.38981e-17
8721.47827 1.39547e-17
8724.51171 1.47055e-17
8727.54515 1.76990e-17
8730.57859 2.15910e-17
8733.61203 1.65836e-17
8736.64548 2.23175e-17
8739.67892 2.45916e-17
8742.71236 2.17209e-17
8745.74580 2.13350e-17
8748.77924 1.20260e-17
8751.81268 8.66777e-18
8754.84613 1.30447e-17
8757.87957 1.51512e-17
8760.91301 2.07885e-17
8763.94645 2.43941e-17
8766.97989 1.96897e-17
8770.01333 2.19121e-17
8773.04678 2.99298e-17
8776.08022 2.82455e-17
8779.11366 2.38387e-17
8782.14710 2.87516e-17
8785.18054 3.31648e-17
8788.21398 3.20173e-17
8791.24742 3.33510e-17
8794.28087 3.24704e-17
8797.31431 3.49060e-17
8800.34775 3.17111e-17
8803.38119 2.74217e-17
8806.41463 3.46137e-17
8809.44807 2.80867e-17
8812.48151 2.56993e-17
8815.51496 3.20534e-17
8818.54840 2.96828e-17
8821.58184 3.06341e-17
8824.61528 2.58034e-17
8827.64872 2.34041e-17
8830.68217 3.26651e-17
8833.71561 3.36698e-17
8836.74905 3.76527e-17
8839.78249 3.81006e-17
8842.81593 2.91772e-17
8845.84937 2.13497e-17
8848.88281 2.61801e-17
8851.91626 3.06702e-17
8854.94970 2.77634e-17
8857.98314 2.82448e-17
8861.01658 2.33616e-17
8864.05002 1.87717e-17
8867.08346 2.20132e-17
8870.11691 2.28751e-17
8873.15035 2.05559e-17
8876.18379 1.61843e-17
8879.21723 1.59503e-17
8882.25067 1.64559e-17
8885.28411 1.79818e-17
8888.31755 1.98456e-17
8891.35100 1.40528e-17
8894.38444 9.88767e-18
8897.41788 1.37280e-17
8900.45132 1.57364e-17
8903.48476 2.43931e-17
8906.51820 2.29545e-17
8909.55164 2.28384e-17
8912.58509 2.13032e-17
8915.61853 2.08777e-17
8918.65197 2.12368e-17
8921.68541 2.06918e-17
8924.71885 2.24453e-17
8927.75230 2.41663e-17
8930.78574 2.36417e-17
8933.81918 2.25530e-17
8936.85262 2.61819e-17
8939.88606 2.18104e-17
8942.91950 2.97218e-17
8945.95294 3.01260e-17
8948.98639 2.09190e-17
8952.01983 1.37338e-17
8955.05327 1.93781e-17
8958.08671 2.14075e-17
8961.12015 1.00429e-17
8964.15359 1.44769e-17
8967.18704 2.25695e-17
8970.22048 1.32886e-17
8973.25392 1.58417e-17
8976.28736 1.33407e-17
8979.32080 1.28516e-17
8982.35424 1.16948e-17
8985.38768 9.81786e-18
8988.42113 1.05701e-17
8991.45457 1.33847e-17
8994.48801 1.30798e-17
8997.52145 6.36913e-18
9000.55489 7.52855e-18
9003.58833 1.84585e-17
9006.62178 1.54829e-17
9009.65522 1.74506e-17
9012.68866 1.90413e-17
9015.72210 1.32516e-17
9018.75554 1.21542e-17
9021.78898 1.11030e-17
9024.82243 7.56820e-18
9027.85587 9.21480e-18
9030.88931 1.12614e-17
9033.92275 1.12680e-17
9036.95619 1.46566e-17
9039.98963 1.58453e-17
9043.02307 2.02502e-17
9046.05652 1.69189e-17
9049.08996 1.33098e-17
9052.12340 1.25381e-17
9055.15684 1.56043e-17
9058.19028 1.78403e-17
9061.22372 1.24443e-17
9064.25717 9.39838e-18
9067.29061 1.09475e-17
9070.32405 7.32774e-18
9073.35749 1.03022e-17
9076.39093 1.52386e-17
9079.42437 2.11806e-17
9082.45781 1.98983e-17
9085.49126 1.44503e-17
9088.52470 1.15373e-17
9091.55814 1.37182e-17
9094.59158 1.43420e-17
9097.62502 1.29286e-17
9100.65846 1.38099e-17
9103.69191 1.22892e-17
9106.72535 1.05753e-17
9109.75879 1.26550e-17
9110.70887 1.26550e-17
9112.70728 1.28190e-17
9114.70570 1.29191e-17
9116.71420 1.28734e-17
9118.71262 1.28057e-17
9120.71103 1.28495e-17
9122.70945 1.28981e-17
9124.70786 1.28698e-17
9126.71637 1.27213e-17
9128.71478 1.24633e-17
9130.71319 1.21075e-17
9132.71161 1.17735e-17
9134.72012 1.16393e-17
9136.71853 1.16048e-17
9138.71694 1.16701e-17
9140.71536 1.17296e-17
9142.71377 1.16788e-17
9144.72228 1.14549e-17
9146.72069 1.12276e-17
9148.71911 1.11813e-17
9150.71752 1.12592e-17
9152.71593 1.15816e-17
9154.72444 1.19243e-17
9156.72286 1.20496e-17
9158.72127 1.18617e-17
9160.71968 1.16044e-17
9162.72819 1.15058e-17
9164.72660 1.14528e-17
9166.72502 1.14231e-17
9168.72343 1.14304e-17
9170.72185 1.15051e-17
9172.73035 1.16226e-17
9174.72877 1.17416e-17
9176.72718 1.18068e-17
9178.72559 1.18321e-17
9180.73410 1.17734e-17
9182.73252 1.17090e-17
9184.73093 1.16851e-17
9186.72934 1.17348e-17
9188.72776 1.18695e-17
9190.73626 1.20799e-17
9192.73468 1.22794e-17
9194.73309 1.22883e-17
9196.73151 1.22884e-17
9198.72992 1.24116e-17
9200.73843 1.25812e-17
9202.73684 1.26595e-17
9204.73526 1.26065e-17
9206.73367 1.25637e-17
9208.74218 1.26981e-17
9210.74059 1.28400e-17
9212.73901 1.28478e-17
9214.73742 1.28298e-17
9216.73583 1.29031e-17
9218.74434 1.30964e-17
9220.74275 1.33316e-17
9222.74117 1.35422e-17
9224.73958 1.37015e-17
9226.73800 1.37122e-17
9228.74650 1.36679e-17
9230.74492 1.36474e-17
9232.74333 1.36478e-17
9234.74175 1.35998e-17
9236.75025 1.34658e-17
9238.74867 1.33176e-17
9240.74708 1.32104e-17
9242.74549 1.31624e-17
9244.74391 1.32194e-17
9246.75242 1.33506e-17
9248.75083 1.35303e-17
9250.74924 1.37023e-17
9252.74766 1.38341e-17
9254.75616 1.38174e-17
9256.75458 1.38117e-17
9258.75299 1.39739e-17
9260.75141 1.41882e-17
9262.74982 1.43440e-17
9264.75833 1.43601e-17
9266.75674 1.42705e-17
9268.75516 1.40640e-17
9270.75357 1.38223e-17
9272.75198 1.36075e-17
9274.76049 1.34552e-17
9276.75890 1.33955e-17
9278.75732 1.34351e-17
9280.75573 1.35699e-17
9282.76424 1.37682e-17
9284.76265 1.39271e-17
9286.76107 1.38318e-17
9288.75948 1.36869e-17
9290.75790 1.36384e-17
9292.76640 1.36476e-17
9294.76482 1.35774e-17
9296.76323 1.33872e-17
9298.76164 1.32238e-17
9300.76006 1.32532e-17
9302.76857 1.34152e-17
9304.76698 1.38621e-17
9306.76539 1.42780e-17
9308.76381 1.43495e-17
9310.77231 1.39588e-17
9312.77073 1.33740e-17
9314.76914 1.28091e-17
9316.76756 1.24670e-17
9318.76597 1.28998e-17
9320.77448 1.35016e-17
9322.77289 1.37468e-17
9324.77131 1.35129e-17
9326.76972 1.31563e-17
9328.77823 1.29300e-17
9330.77664 1.27339e-17
9332.77505 1.25367e-17
9334.77347 1.24525e-17
9336.77188 1.26486e-17
9338.78039 1.29816e-17
9340.77880 1.32870e-17
9342.77722 1.33417e-17
9344.77563 1.31494e-17
9346.77405 1.22962e-17
9348.78255 1.16020e-17
9350.78097 1.18225e-17
9352.77938 1.25447e-17
9354.77779 1.32146e-17
9356.78630 1.34580e-17
9358.78471 1.35394e-17
9360.78313 1.35307e-17
9362.78154 1.34311e-17
9364.77996 1.32313e-17
9366.78846 1.30153e-17
9368.78688 1.27510e-17
9370.78529 1.26304e-17
9372.78371 1.28922e-17
9374.79221 1.38021e-17
9376.79063 1.47485e-17
9378.78904 1.51514e-17
9380.78746 1.51445e-17
9382.78587 1.46245e-17
9384.79438 1.38703e-17
9386.79279 1.31707e-17
9388.79120 1.28489e-17
9390.78962 1.26679e-17
9392.78803 1.25049e-17
9394.79654 1.24227e-17
9396.79495 1.24827e-17
9398.79337 1.25859e-17
9400.79178 1.25856e-17
9402.80029 1.24740e-17
9404.79870 1.24831e-17
9406.79712 1.29523e-17
9408.79553 1.34347e-17
9410.79394 1.35970e-17
9412.80245 1.35490e-17
9414.80086 1.34296e-17
9416.79928 1.32973e-17
9418.79769 1.30708e-17
9420.79611 1.27183e-17
9422.80461 1.24415e-17
9424.80303 1.25255e-17
9426.80144 1.27556e-17
9428.79986 1.30527e-17
9430.80836 1.32443e-17
9432.80678 1.32163e-17
9434.80519 1.28640e-17
9436.80361 1.24720e-17
9438.80202 1.23640e-17
9440.81053 1.24097e-17
9442.80894 1.26975e-17
9444.80735 1.30042e-17
9446.80577 1.30987e-17
9448.81428 1.28381e-17
9450.81269 1.24632e-17
9452.81110 1.21258e-17
9454.80952 1.20027e-17
9456.80793 1.25754e-17
9458.81644 1.32610e-17
9460.81485 1.34293e-17
9462.81327 1.29192e-17
9464.81168 1.22805e-17
9466.81009 1.20049e-17
9468.81860 1.19834e-17
9470.81702 1.24437e-17
9472.81543 1.30982e-17
9474.81384 1.38520e-17
9476.82235 1.44059e-17
9478.82076 1.45854e-17
9480.81918 1.41522e-17
9482.81759 1.34893e-17
9484.81601 1.28389e-17
9486.82451 1.23615e-17
9488.82293 1.23210e-17
9490.82134 1.25773e-17
9492.81976 1.29375e-17
9494.81817 1.31371e-17
9496.82668 1.31264e-17
9498.82509 1.25485e-17
9500.82350 1.18863e-17
9502.82192 1.13965e-17
9504.83043 1.11667e-17
9506.82884 1.12327e-17
9508.82725 1.15372e-17
9510.82567 1.19139e-17
9512.82408 1.21442e-17
9514.83259 1.22532e-17
9516.83100 1.20505e-17
9518.82942 1.18202e-17
9520.82783 1.18564e-17
9522.82624 1.21306e-17
9524.83475 1.23592e-17
9526.83317 1.22807e-17
9528.83158 1.20576e-17
9530.82999 1.16457e-17
9532.83850 1.12701e-17
9534.83691 1.11600e-17
9536.83533 1.12364e-17
9538.83374 1.12947e-17
9540.83216 1.11773e-17
9542.84066 1.09999e-17
9544.83908 1.07652e-17
9546.83749 1.05951e-17
9548.83591 1.06395e-17
9550.83432 1.08032e-17
9552.84283 1.09889e-17
9554.84124 1.10826e-17
9556.83965 1.10797e-17
9558.83807 1.08905e-17
9560.84658 1.06543e-17
9562.84499 1.04877e-17
9564.84340 1.03469e-17
9566.84182 1.01816e-17
9568.84023 9.98154e-18
9570.84874 9.76413e-18
9572.84715 9.54843e-18
9574.84557 9.38315e-18
9576.84398 9.32102e-18
9578.84239 9.38150e-18
9580.85090 9.65458e-18
9582.84931 1.00152e-17
9584.84773 1.03225e-17
9586.84614 1.04092e-17
9588.85465 1.03564e-17
9590.85306 1.00898e-17
9592.85148 9.80106e-18
9594.84989 9.59106e-18
9596.84831 9.53611e-18
9598.85681 9.68887e-18
9600.85523 1.00183e-17
9602.85364 1.03615e-17
9604.85206 1.04973e-17
9606.86056 1.05187e-17
9608.85898 1.03274e-17
9610.85739 1.01443e-17
9612.85580 1.01994e-17
9614.85422 1.05083e-17
9616.86273 1.08417e-17
9618.86114 1.09727e-17
9620.85955 1.09623e-17
9622.85797 1.06663e-17
9624.85638 1.03305e-17
9626.86489 1.01291e-17
9628.86330 1.01313e-17
9630.86172 1.02962e-17
9632.86013 1.05631e-17
9634.86864 1.07570e-17
9636.86705 1.04421e-17
9638.86547 1.01214e-17
9640.86388 1.01538e-17
9642.86229 1.04372e-17
9644.87080 1.07317e-17
9646.86921 1.08598e-17
9648.86763 1.09078e-17
9650.86604 1.08593e-17
9652.86446 1.07652e-17
9654.87296 1.06246e-17
9656.87138 1.05272e-17
9658.86979 1.05611e-17
9660.86821 1.07331e-17
9662.87671 1.09392e-17
9664.87513 1.10715e-17
9666.87354 1.11525e-17
9668.87195 1.11447e-17
9670.87037 1.10789e-17
9672.87888 1.09476e-17
9674.87729 1.08143e-17
9676.87570 1.07398e-17
9678.87412 1.07947e-17
9680.88262 1.08872e-17
9682.88104 1.09449e-17
9684.87945 1.09827e-17
9686.87787 1.09804e-17
9688.87628 1.09707e-17
9690.88479 1.10099e-17
9692.88320 1.11078e-17
9694.88162 1.11707e-17
9696.88003 1.10608e-17
9698.87844 1.08903e-17
9700.88695 1.06637e-17
9702.88536 1.04781e-17
9704.88378 1.04047e-17
9706.88219 1.04890e-17
9708.89070 1.06777e-17
9710.88911 1.09478e-17
9712.88753 1.11594e-17
9714.88594 1.10638e-17
9716.88436 1.08959e-17
9718.89286 1.08915e-17
9720.89128 1.10490e-17
9722.88969 1.11301e-17
9724.88810 1.09642e-17
9726.89661 1.08463e-17
9728.89503 1.11588e-17
9730.89344 1.15506e-17
9732.89185 1.18075e-17
9734.89027 1.18818e-17
9736.89877 1.18435e-17
9738.89719 1.17594e-17
9740.89560 1.17062e-17
9742.89402 1.19105e-17
9744.89243 1.21019e-17
9746.90094 1.21240e-17
9748.89935 1.19817e-17
9750.89776 1.16865e-17
9752.89618 1.13362e-17
9754.90469 1.10632e-17
9756.90310 1.11068e-17
9758.90151 1.12005e-17
9760.89993 1.11918e-17
9762.89834 1.10690e-17
9764.90685 1.07831e-17
9766.90526 1.04298e-17
9768.90368 1.01681e-17
9770.90209 1.01884e-17
9772.90051 1.02813e-17
9774.90901 1.02816e-17
9776.90743 1.02681e-17
9778.90584 1.02667e-17
9780.90425 1.03225e-17
9782.91276 1.04845e-17
9784.91118 1.07634e-17
9786.90959 1.10268e-17
9788.90800 1.10661e-17
9790.90642 1.10271e-17
9792.91492 1.09717e-17
9794.91334 1.08893e-17
9796.91175 1.07122e-17
9798.91017 1.04634e-17
9800.91867 1.02474e-17
9802.91709 1.02186e-17
9804.91550 1.02624e-17
9806.91392 1.03549e-17
9808.91233 1.04449e-17
9810.92084 1.04819e-17
9812.91925 1.04721e-17
9814.91766 1.05006e-17
9816.91608 1.06488e-17
9818.91449 1.07657e-17
9820.92300 1.07155e-17
9822.92141 1.05381e-17
9824.91983 1.02039e-17
9826.91824 9.81717e-18
9828.92675 9.47391e-18
9830.92516 9.30530e-18
9832.92358 9.24795e-18
9834.92199 9.30937e-18
9836.92040 9.46504e-18
9838.92891 9.79451e-18
9840.92733 1.00985e-17
9842.92574 1.01264e-17
9844.92415 9.80498e-18
9846.92257 9.50502e-18
9848.93107 9.71467e-18
9850.92949 1.00189e-17
9852.92790 1.02402e-17
9854.92632 1.03429e-17
9856.93482 1.03402e-17
9858.93324 1.02355e-17
9860.93165 1.00591e-17
9862.93007 9.84580e-18
9864.92848 9.61165e-18
9866.93699 9.32991e-18
9868.93540 9.13488e-18
9870.93381 9.18186e-18
9872.93223 9.41408e-18
9874.94074 9.65249e-18
9876.93915 9.72738e-18
9878.93756 9.76636e-18
9880.93598 9.86013e-18
9882.93439 9.92207e-18
9884.94290 9.90711e-18
9886.94131 9.79709e-18
9888.93973 9.55484e-18
9890.93814 9.23400e-18
9892.93655 8.99974e-18
9894.94506 9.19345e-18
9896.94348 9.43241e-18
9898.94189 9.46390e-18
9900.94030 9.36995e-18
9902.94881 9.30203e-18
9904.94722 9.31091e-18
9906.94564 9.28601e-18
9908.94405 9.12329e-18
9910.94247 9.03879e-18
9912.95097 9.28603e-18
9914.94939 9.66818e-18
9916.94780 1.00937e-17
9918.94621 1.03738e-17
9920.95472 1.03943e-17
9922.95314 1.00030e-17
9924.95155 9.55600e-18
9926.94996 9.46303e-18
9928.94838 9.48939e-18
9930.95689 9.51210e-18
9932.95530 9.51067e-18
9934.95371 9.57211e-18
9936.95213 9.68937e-18
9938.95054 9.73485e-18
9940.95905 9.37270e-18
9942.95746 9.10229e-18
9944.95588 9.34884e-18
9946.95429 9.87298e-18
9948.96280 1.04354e-17
9950.96121 1.07044e-17
9952.95963 1.05678e-17
9954.95804 9.59260e-18
9956.95645 8.65581e-18
9958.96496 8.60648e-18
9960.96337 9.01748e-18
9962.96179 9.55513e-18
9964.96020 9.90054e-18
9966.95862 1.00186e-17
9968.96712 9.72776e-18
9970.96554 9.37881e-18
9972.96395 9.35274e-18
9974.96236 9.42274e-18
9976.97087 9.39566e-18
9978.96929 9.34336e-18
9980.96770 9.50508e-18
9982.96611 9.97506e-18
9984.96453 1.03977e-17
9986.97304 1.02364e-17
9988.97145 9.91992e-18
9990.96986 9.61991e-18
9992.96828 9.37990e-18
9994.97678 9.11606e-18
9996.97520 8.86783e-18
9998.97361 8.73197e-18
10000.97203 8.88071e-18
10002.97044 9.10937e-18
