# wavelength flux
3525.91267 -4.93628e-18
3528.51725 -1.46437e-18
3531.12183 3.09320e-19
3533.72640 -2.35546e-18
3536.33098 3.14724e-18
3538.93556 6.37399e-18
3541.54014 -3.08745e-18
3544.14472 7.64396e-19
3546.74930 -1.07792e-18
3549.35388 -1.04316e-19
3551.95846 -1.33607e-18
3554.56304 -4.09774e-18
3557.16762 9.65154e-19
3559.77220 7.71325e-19
3562.37678 -2.11230e-18
3564.98135 -8.77868e-19
3567.58593 -2.65579e-17
3570.19051 7.63349e-18
3572.79509 -1.79093e-18
3575.39967 -1.56892e-18
3578.00425 -8.53398e-18
3580.60883 -4.82864e-18
3583.21341 -3.79061e-18
3585.81799 -6.53825e-18
3588.42257 -3.00529e-18
3591.02715 1.87358e-17
3593.63172 1.12744e-17
3596.23630 -3.30732e-19
3598.84088 -2.98877e-17
3601.44546 -2.04229e-17
3604.05004 -1.10534e-17
3606.65462 -4.96206e-18
3609.25920 -1.19366e-17
3611.86378 8.74080e-18
3614.46836 3.08462e-18
3617.07294 9.11223e-18
3619.67751 -7.89633e-18
3622.28209 2.54811e-18
3624.88667 -8.27370e-18
3627.49125 -6.94223e-18
3630.09583 -2.34121e-18
3632.70041 5.27666e-18
3635.30499 1.68624e-18
3637.90957 4.33176e-18
3640.51415 1.14053e-17
3643.11873 7.26406e-18
3645.72330 -6.11411e-20
3648.32788 4.13583e-18
3650.93246 1.58712e-18
3653.53704 -1.43926e-18
3656.14162 3.16769e-18
3658.74620 5.86909e-18
3661.35078 -1.58324e-18
3663.95536 -1.15133e-17
3666.55994 5.08239e-18
3669.16452 -9.37870e-18
3671.76910 -1.94072e-17
3674.37367 6.56755e-19
3676.97825 1.18075e-18
3679.58283 2.70699e-18
3682.18741 -5.51109e-19
3684.79199 -1.97755e-17
3687.39657 -1.50775e-18
3690.00115 -7.66493e-18
3692.60573 -1.15874e-17
3695.21031 -6.54791e-18
3697.81489 -1.40375e-17
3700.41946 -6.00352e-18
3703.02405 -9.32384e-18
3705.62862 2.52448e-18
3708.23320 -1.56745e-18
3710.83778 -5.85574e-18
3713.44236 -4.16094e-18
3716.04694 -5.54819e-19
3718.65152 1.04040e-18
3721.25610 -4.26345e-18
3723.86068 -2.77811e-18
3726.46526 3.17674e-18
3729.06983 -7.63890e-18
3731.67441 -9.45213e-18
3734.27899 -1.01792e-17
3736.88357 -2.60176e-18
3739.48815 4.59313e-18
3742.09273 -9.78415e-18
3744.69731 2.11980e-18
3747.30189 -3.89962e-18
3749.90647 5.06184e-18
3752.51105 7.55004e-18
3755.11563 1.12400e-17
3757.72021 4.91072e-18
3760.32478 1.68615e-17
3762.92936 5.32452e-18
3765.53394 7.53709e-18
3768.13852 6.65137e-18
3770.74310 -6.74953e-19
3773.34768 5.91387e-18
3775.95226 6.61750e-18
3778.55684 1.30230e-17
3781.16142 5.15040e-18
3783.76600 1.00810e-17
3786.37057 6.96074e-18
3788.97515 1.33770e-17
3791.57973 6.28652e-18
3794.18431 1.83273e-17
3796.78889 2.63784e-17
3799.39347 2.56925e-17
3801.99805 5.93744e-18
3804.60263 1.42799e-17
3807.20721 2.00922e-17
3809.81179 1.65266e-17
3812.41637 1.35294e-17
3815.02094 1.59778e-17
3817.62552 1.30620e-17
3820.23010 1.49452e-17
3822.83468 2.29120e-17
3825.43926 2.38531e-17
3828.04384 1.61696e-17
3830.64842 1.42825e-17
3833.25300 1.45677e-17
3835.85758 1.40623e-17
3838.46216 1.59696e-17
3841.06673 1.80426e-17
3843.67131 2.41321e-17
3846.27589 3.16254e-17
3848.88047 4.43589e-17
3851.48505 4.84277e-17
3854.08963 2.88492e-17
3856.69421 2.34948e-17
3859.29879 2.68138e-17
3861.90337 1.21675e-17
3864.50795 1.51424e-17
3867.11253 2.43762e-17
3869.71711 2.43839e-17
3872.32168 1.59444e-17
3874.92626 2.03095e-17
3877.53084 2.44328e-17
3880.13542 1.92186e-17
3882.74000 1.28328e-17
3885.34458 1.45711e-17
3887.94916 1.93008e-17
3890.55374 1.75914e-17
3893.15832 1.55121e-17
3895.76290 8.81411e-18
3898.36748 1.74288e-17
3900.97205 2.33031e-17
3903.57663 2.03776e-17
3906.18121 1.89039e-17
3908.78579 2.04610e-17
3911.39037 2.60344e-17
3913.99495 1.84417e-17
3916.59953 2.28431e-17
3919.20411 2.08954e-17
3921.80869 3.00598e-17
3924.41327 2.53203e-17
3927.01784 2.34702e-17
3929.62242 2.55072e-17
3932.22700 2.18300e-17
3934.83158 2.08503e-17
3937.43616 2.43732e-17
3940.04074 2.36880e-17
3942.64532 2.22152e-17
3945.24990 2.08407e-17
3947.85448 2.11928e-17
3950.45906 1.87041e-17
3953.06363 2.41950e-17
3955.66821 2.27784e-17
3958.27279 2.47160e-17
3960.87737 2.46871e-17
3963.48195 2.39024e-17
3966.08653 2.87841e-17
3968.69111 2.22881e-17
3971.29569 2.67411e-17
3973.90027 2.35866e-17
3976.50485 2.68317e-17
3979.10943 2.50693e-17
3981.71400 2.81266e-17
3984.31858 2.93994e-17
3986.92316 2.27463e-17
3989.52774 2.09033e-17
3992.13232 3.05750e-17
3994.73690 2.43212e-17
3997.34148 3.40907e-17
3999.94606 2.59984e-17
4002.55064 2.84898e-17
4005.15522 3.54812e-17
4007.75980 2.79172e-17
4010.36438 1.96114e-17
4012.96895 1.87563e-17
4015.57353 3.15890e-17
4018.17811 3.24298e-17
4020.78269 2.09344e-17
4023.38727 1.80843e-17
4025.99185 2.32853e-17
4028.59643 2.99365e-17
4031.20101 2.45520e-17
4033.80559 2.66618e-17
4036.41016 1.64569e-17
4039.01474 2.24667e-17
4041.61932 3.56556e-17
4044.22390 2.42137e-17
4046.82848 2.10643e-17
4049.43306 3.68609e-17
4052.03764 4.02708e-17
4054.64222 3.73600e-17
4057.24680 2.82817e-17
4059.85138 2.98566e-17
4062.45596 2.95537e-17
4065.06054 2.27407e-17
4067.66511 2.10588e-17
4070.26969 2.41690e-17
4072.87427 3.04541e-17
4075.47885 3.16120e-17
4078.08343 3.36245e-17
4080.68801 2.68399e-17
4083.29259 2.62718e-17
4085.89717 2.32285e-17
4088.50175 3.02959e-17
4091.10633 3.94309e-17
4093.71090 3.66823e-17
4096.31548 3.47779e-17
4098.92006 4.07201e-17
4101.52464 3.10748e-17
4104.12922 4.00699e-17
4106.73380 3.39605e-17
4109.33838 2.46232e-17
4111.94296 2.48888e-17
4114.54754 2.93175e-17
4117.15212 2.63297e-17
4119.75670 2.33852e-17
4122.36128 2.83637e-17
4124.96585 3.59544e-17
4127.57043 2.80709e-17
4130.17501 3.15551e-17
4132.77959 3.23080e-17
4135.38417 3.66189e-17
4137.98875 3.62681e-17
4140.59333 3.61423e-17
4143.19791 3.45119e-17
4145.80249 3.06997e-17
4148.40707 3.35116e-17
4151.01164 3.77565e-17
4153.61622 3.52546e-17
4156.22080 3.88105e-17
4158.82538 3.63886e-17
4161.42996 3.41851e-17
4164.03454 3.18691e-17
4166.63912 3.92475e-17
4169.24370 3.09284e-17
4171.84828 3.56001e-17
4174.45286 3.68965e-17
4177.05743 3.55030e-17
4179.66201 3.29317e-17
4182.26659 3.19645e-17
4184.87117 3.63375e-17
4187.47575 4.02810e-17
4190.08033 3.79522e-17
4192.68491 3.66862e-17
4195.28949 3.64152e-17
4197.89407 3.32971e-17
4200.49865 3.92299e-17
4203.10323 4.15189e-17
4205.70781 3.97843e-17
4208.31238 3.95138e-17
4210.91696 3.78200e-17
4213.52154 3.75791e-17
4216.12612 3.81296e-17
4218.73070 3.84775e-17
4221.33528 4.11483e-17
4223.93986 4.01820e-17
4226.54444 4.03655e-17
4229.14902 3.95813e-17
4231.75360 3.66348e-17
4234.35818 4.14172e-17
4236.96275 4.09220e-17
4239.56733 3.90427e-17
4242.17191 3.93737e-17
4244.77649 3.82444e-17
4247.38107 4.07155e-17
4249.98565 3.38716e-17
4252.59023 4.18550e-17
4255.19481 3.61391e-17
4257.79939 3.51662e-17
4260.40397 3.82702e-17
4263.00854 4.09998e-17
4265.61312 4.18818e-17
4268.21770 4.41955e-17
4270.82228 3.62380e-17
4273.42686 3.88743e-17
4276.03144 3.52536e-17
4278.63602 3.77290e-17
4281.24060 4.04979e-17
4283.84518 4.03591e-17
4286.44976 3.92564e-17
4289.05433 4.40991e-17
4291.65891 4.18518e-17
4294.26349 4.40737e-17
4296.86807 4.01942e-17
4299.47265 4.07978e-17
4302.07723 4.12016e-17
4304.68181 3.87956e-17
4307.28639 4.02629e-17
4309.89097 3.84786e-17
4312.49555 4.01397e-17
4315.10013 4.11671e-17
4317.70471 3.81948e-17
4320.30928 3.60381e-17
4322.91386 4.16758e-17
4325.51844 3.85570e-17
4328.12302 3.82332e-17
4330.72760 4.09262e-17
4333.33218 4.09225e-17
4335.93676 3.90239e-17
4338.54134 3.71838e-17
4341.14592 3.53201e-17
4343.75050 4.27985e-17
4346.35507 4.61228e-17
4348.95965 4.25579e-17
4351.56423 3.99082e-17
4354.16881 4.19388e-17
4356.77339 4.51923e-17
4359.37797 4.20196e-17
4361.98255 3.76385e-17
4364.58713 3.72800e-17
4367.19171 3.71701e-17
4369.79629 3.47745e-17
4372.40086 3.56473e-17
4375.00544 3.77036e-17
4377.61002 3.88019e-17
4380.21460 4.56942e-17
4382.81918 4.30196e-17
4385.42376 3.84136e-17
4388.02834 4.01719e-17
4390.63292 4.31421e-17
4393.23750 4.49236e-17
4395.84208 4.14661e-17
4398.44666 4.46972e-17
4401.05123 4.38447e-17
4403.65581 4.38733e-17
4406.26039 3.82689e-17
4408.86497 4.12088e-17
4411.46955 4.18378e-17
4414.07413 4.61385e-17
4416.67871 4.98408e-17
4419.28329 4.66605e-17
4421.88787 4.62605e-17
4424.49245 4.38990e-17
4427.09703 4.23015e-17
4429.70161 4.18132e-17
4432.30618 4.47043e-17
4434.91076 4.50510e-17
4437.51534 4.89089e-17
4440.11992 5.46763e-17
4442.72450 4.93975e-17
4445.32908 4.76252e-17
4447.93366 4.31404e-17
4450.53824 4.23740e-17
4453.14282 4.71526e-17
4455.74740 4.64430e-17
4458.35197 5.13574e-17
4460.95655 5.29937e-17
4463.56113 4.71305e-17
4466.16571 5.24875e-17
4468.77029 5.41258e-17
4471.37487 5.70085e-17
4473.97945 5.78479e-17
4476.58403 4.90463e-17
4479.18861 5.52017e-17
4481.79319 6.59807e-17
4484.39776 6.72565e-17
4487.00234 6.43000e-17
4489.60692 6.51356e-17
4492.21150 6.18057e-17
4494.81608 5.11774e-17
4497.42066 5.26428e-17
4500.02524 6.35085e-17
4502.62982 6.37824e-17
4505.23440 6.27456e-17
4507.83898 6.48647e-17
4510.44356 6.57500e-17
4513.04814 6.48824e-17
4515.65271 6.45646e-17
4518.25729 6.31757e-17
4520.86187 6.33934e-17
4523.46645 6.45449e-17
4526.07103 6.33397e-17
4528.67561 6.38089e-17
4531.28019 6.71489e-17
4533.88477 6.60390e-17
4536.48935 6.57494e-17
4539.09393 6.68191e-17
4541.69851 6.48081e-17
4544.30308 6.81454e-17
4546.90766 7.24995e-17
4549.51224 7.33351e-17
4552.11682 7.37735e-17
4554.72140 7.24926e-17
4557.32598 6.73115e-17
4559.93056 6.92438e-17
4562.53514 6.81595e-17
4565.13972 6.68099e-17
4567.74430 6.75960e-17
4570.34887 6.36156e-17
4572.95345 6.37333e-17
4575.55803 6.66815e-17
4578.16261 6.91751e-17
4580.76719 6.89163e-17
4583.37177 7.33085e-17
4585.97635 7.16462e-17
4588.58093 7.18836e-17
4591.18551 7.37888e-17
4593.79009 7.37458e-17
4596.39466 7.52280e-17
4598.99924 7.42839e-17
4601.60382 7.19745e-17
4604.20840 7.54033e-17
4606.81298 7.66014e-17
4609.41756 7.03625e-17
4612.02214 7.31933e-17
4614.62672 7.49530e-17
4617.23130 7.14999e-17
4619.83588 6.96719e-17
4622.44046 7.13528e-17
4625.04504 7.27793e-17
4627.64961 7.33551e-17
4630.25419 7.04167e-17
4632.85877 7.16820e-17
4635.46335 7.22331e-17
4638.06793 7.39655e-17
4640.67251 6.95163e-17
4643.27709 7.34199e-17
4645.88167 7.54084e-17
4648.48625 7.06697e-17
4651.09083 7.59536e-17
4653.69541 6.80387e-17
4656.29998 7.07543e-17
4658.90456 7.31515e-17
4661.50914 7.15701e-17
4664.11372 6.57670e-17
4666.71830 7.02648e-17
4669.32288 7.10651e-17
4671.92746 7.44286e-17
4674.53204 7.04263e-17
4677.13662 6.89303e-17
4679.74119 7.32992e-17
4682.34577 7.23581e-17
4684.95035 6.77803e-17
4687.55493 7.21891e-17
4690.15951 7.46379e-17
4692.76409 7.23012e-17
4695.36867 7.31236e-17
4697.97325 7.12764e-17
4700.57783 6.73380e-17
4703.18241 7.20095e-17
4705.78699 7.51511e-17
4708.39156 7.29499e-17
4710.99614 7.63995e-17
4713.60072 7.50090e-17
4716.20530 7.13026e-17
4718.80988 7.77034e-17
4721.41446 7.80173e-17
4724.01904 7.85010e-17
4726.62362 7.27788e-17
4729.22820 7.09421e-17
4731.83278 6.89584e-17
4734.43736 7.19745e-17
4737.04194 7.33065e-17
4739.64651 7.12391e-17
4742.25109 7.27038e-17
4744.85567 7.91030e-17
4747.46025 7.53373e-17
4750.06483 7.35583e-17
4752.66941 7.48908e-17
4755.27399 7.40374e-17
4757.87857 7.48283e-17
4760.48315 7.50268e-17
4763.08773 7.37074e-17
4765.69230 7.53503e-17
4768.29688 7.55067e-17
4770.90146 7.77081e-17
4773.50604 7.74315e-17
4776.11062 7.39084e-17
4778.71520 7.65048e-17
4781.31978 7.74110e-17
4783.92436 7.32571e-17
4786.52894 7.68964e-17
4789.13352 7.89349e-17
4791.73809 7.55050e-17
4794.34267 7.91746e-17
4796.94725 7.81463e-17
4799.55183 7.62016e-17
4802.15641 7.68309e-17
4804.76099 7.76934e-17
4807.36557 7.83443e-17
4809.97015 7.85919e-17
4812.57473 7.42125e-17
4815.17931 7.95742e-17
4817.78389 7.47214e-17
4820.38846 7.37003e-17
4822.99304 7.66517e-17
4825.59762 8.22020e-17
4828.20220 8.81778e-17
4830.80678 8.69178e-17
4833.41136 8.56353e-17
4836.01594 8.66703e-17
4838.62052 8.76625e-17
4841.22510 8.66335e-17
4843.82968 8.36629e-17
4846.43426 8.24820e-17
4849.03884 8.30801e-17
4851.64341 8.90054e-17
4854.24799 8.87481e-17
4856.85257 8.52945e-17
4859.45715 8.60803e-17
4862.06173 8.95065e-17
4864.66631 8.98067e-17
4867.27089 9.29320e-17
4869.87547 9.10896e-17
4872.48005 8.46231e-17
4875.08463 8.36434e-17
4877.68920 8.49697e-17
4880.29378 8.79491e-17
4882.89836 8.78442e-17
4885.50294 8.78147e-17
4888.10752 8.19937e-17
4890.71210 8.62324e-17
4893.31668 8.58595e-17
4895.92126 8.53727e-17
4898.52584 8.78806e-17
4901.13042 8.79879e-17
4903.73499 8.72798e-17
4906.33957 8.67863e-17
4908.94415 9.06785e-17
4911.54873 8.59914e-17
4914.15331 8.60060e-17
4916.75789 8.14220e-17
4919.36247 8.37349e-17
4921.96705 8.76201e-17
4924.57163 8.92270e-17
4927.17621 8.95288e-17
4929.78079 8.66413e-17
4932.38537 8.74389e-17
4934.98994 8.49556e-17
4937.59452 8.56950e-17
4940.19910 8.86996e-17
4942.80368 8.24956e-17
4945.40826 8.23247e-17
4948.01284 8.37623e-17
4950.61742 8.44581e-17
4953.22200 8.22765e-17
4955.82658 7.95187e-17
4958.43116 8.20294e-17
4961.03574 8.24982e-17
4963.64031 8.34292e-17
4966.24489 8.13674e-17
4968.84947 8.46689e-17
4971.45405 8.23057e-17
4974.05863 8.21168e-17
4976.66321 8.31276e-17
4979.26779 8.03407e-17
4981.87237 7.99226e-17
4984.47695 7.87587e-17
4987.08152 7.79958e-17
4989.68610 7.79552e-17
4992.29068 8.29977e-17
4994.89526 8.30357e-17
4997.49984 7.68585e-17
5000.10442 7.62612e-17
5002.70900 8.04783e-17
5005.31358 8.21853e-17
5007.91816 7.82168e-17
5010.52274 7.95970e-17
5013.12732 8.27846e-17
5015.73189 9.53430e-17
5018.33647 1.08827e-16
5020.94105 1.02961e-16
5023.54563 9.93146e-17
5026.15021 9.38191e-17
5028.75479 8.45690e-17
5031.35937 7.75453e-17
5033.96395 7.62931e-17
5036.56853 7.45848e-17
5039.17311 7.60029e-17
5041.77769 7.74622e-17
5044.38227 7.98045e-17
5046.98684 8.26498e-17
5049.59142 7.90557e-17
5052.19600 8.03823e-17
5054.80058 8.16750e-17
5057.40516 7.93430e-17
5060.00974 7.98261e-17
5062.61432 8.06340e-17
5065.21890 7.97546e-17
5067.82348 8.14785e-17
5070.42806 7.96297e-17
5073.03263 7.99589e-17
5075.63721 8.35107e-17
5078.24179 8.47840e-17
5080.84637 8.33975e-17
5083.45095 7.99835e-17
5086.05553 8.06998e-17
5088.66011 8.22770e-17
5091.26469 8.08758e-17
5093.86927 8.04579e-17
5096.47385 8.14554e-17
5099.07842 8.35322e-17
5101.68300 8.43982e-17
5104.28758 8.78853e-17
5106.89216 8.38208e-17
5109.49674 8.54786e-17
5112.10132 8.82299e-17
5114.70590 1.00727e-16
5117.31048 1.23123e-16
5119.91506 1.31397e-16
5122.51964 1.26263e-16
5125.12422 1.17647e-16
5127.72879 1.07519e-16
5130.33337 8.73820e-17
5132.93795 8.53511e-17
5135.54253 8.40743e-17
5138.14711 8.81012e-17
5140.75169 8.54137e-17
5143.35627 8.85105e-17
5145.96085 8.85691e-17
5148.56543 8.33057e-17
5151.17001 8.60205e-17
5153.77459 8.89125e-17
5156.37917 8.73510e-17
5158.98374 8.84946e-17
5161.58832 9.38057e-17
5164.19290 1.29866e-16
5179.82038 1.00215e-16
5182.42496 9.26446e-17
5185.02953 9.35966e-17
5187.63411 9.48662e-17
5190.23869 9.20088e-17
5192.84327 9.45916e-17
5195.44785 8.93918e-17
5198.05243 8.83174e-17
5200.65701 9.56513e-17
5203.26159 9.87118e-17
5205.86617 9.82967e-17
5208.47075 1.00916e-16
5211.07532 1.00079e-16
5213.67990 9.66562e-17
5216.28448 9.49656e-17
5218.88906 9.67836e-17
5221.49364 9.78684e-17
5224.09822 9.93672e-17
5226.70280 1.04799e-16
5229.30738 1.03487e-16
5231.91196 1.01360e-16
5234.51654 1.03396e-16
5237.12112 1.06790e-16
5239.72570 1.06826e-16
5242.33027 1.05832e-16
5244.93485 1.03219e-16
5247.53943 1.03536e-16
5250.14401 1.07607e-16
5252.74859 1.07919e-16
5255.35317 1.06713e-16
5257.95775 1.05318e-16
5260.56233 1.06018e-16
5263.16691 1.05613e-16
5265.77149 1.05436e-16
5268.37607 1.08378e-16
5270.98064 1.07341e-16
5273.58522 1.07818e-16
5276.18980 1.10780e-16
5278.79438 1.12384e-16
5281.39896 1.10155e-16
5284.00354 1.06646e-16
5286.60812 1.07525e-16
5289.21270 1.07482e-16
5291.81728 1.04226e-16
5294.42185 1.07350e-16
5297.02643 1.09091e-16
5299.63101 1.11404e-16
5302.23559 1.11342e-16
5304.84017 1.10145e-16
5307.44475 1.08320e-16
5310.04933 1.08801e-16
5312.65391 1.10777e-16
5315.25849 1.16047e-16
5317.86307 1.17965e-16
5320.46765 1.15051e-16
5323.07222 1.17165e-16
5325.67680 1.15915e-16
5328.28138 1.13527e-16
5330.88596 1.17288e-16
5333.49054 1.16631e-16
5336.09512 1.15581e-16
5338.69970 1.17501e-16
5341.30428 1.20944e-16
5343.90886 1.22721e-16
5346.51344 1.23370e-16
5349.11802 1.22988e-16
5351.72260 1.22766e-16
5354.32717 1.30170e-16
5356.93175 1.24426e-16
5359.53633 1.22616e-16
5362.14091 1.27890e-16
5364.74549 1.27203e-16
5367.35007 1.26233e-16
5369.95465 1.30584e-16
5372.55923 1.31192e-16
5375.16381 1.31594e-16
5377.76839 1.32054e-16
5380.37296 1.31631e-16
5382.97754 1.33559e-16
5385.58212 1.37288e-16
5388.18670 1.35857e-16
5390.79128 1.31772e-16
5393.39586 1.34577e-16
5396.00044 1.40126e-16
5398.60502 1.37849e-16
5401.20960 1.37698e-16
5403.81418 1.36980e-16
5406.41875 1.42109e-16
5409.02333 1.45601e-16
5411.62791 1.41108e-16
5414.23249 1.42288e-16
5416.83707 1.41566e-16
5419.44165 1.42068e-16
5422.04623 1.44437e-16
5424.65081 1.44542e-16
5427.25539 1.44829e-16
5429.85997 1.45249e-16
5432.46455 1.46590e-16
5435.06912 1.47767e-16
5437.67370 1.43421e-16
5440.27828 1.45154e-16
5442.88286 1.47273e-16
5445.48744 1.46535e-16
5448.09202 1.50156e-16
5450.69660 1.49762e-16
5453.30118 1.48729e-16
5455.90576 1.50259e-16
5458.51034 1.49361e-16
5461.11492 1.46521e-16
5463.71950 1.49838e-16
5466.32407 1.52086e-16
5468.92865 1.55916e-16
5471.53323 1.57632e-16
5474.13781 1.55455e-16
5476.74239 1.56287e-16
5479.34697 1.56504e-16
5481.95155 1.58077e-16
5484.55613 1.56166e-16
5487.16071 1.56171e-16
5489.76529 1.55519e-16
5492.36986 1.53714e-16
5494.97444 1.58678e-16
5497.57902 1.60259e-16
5500.18360 1.60338e-16
5502.78818 1.60985e-16
5505.39276 1.61334e-16
5507.99734 1.63212e-16
5510.60192 1.61701e-16
5513.20650 1.60518e-16
5515.81108 1.62957e-16
5518.41565 1.61681e-16
5521.02023 1.63569e-16
5523.62481 1.65473e-16
5526.22939 1.58922e-16
5528.83397 1.58187e-16
5531.43855 1.63285e-16
5534.04313 1.64708e-16
5536.64771 1.63632e-16
5539.25229 1.63066e-16
5541.85687 1.63007e-16
5544.46145 1.62456e-16
5547.06603 1.61551e-16
5549.67060 1.65953e-16
5552.27518 1.66478e-16
5554.87976 1.64406e-16
5557.48434 1.66114e-16
5560.08892 1.65199e-16
5562.69350 1.64807e-16
5565.29808 1.59844e-16
5567.90266 1.61389e-16
5570.50724 1.68099e-16
5573.11182 1.66416e-16
5575.71640 1.60946e-16
5578.32097 1.60934e-16
5580.92555 1.56116e-16
5583.53013 1.55921e-16
5586.13471 1.59513e-16
5588.73929 1.63552e-16
5591.34387 1.61084e-16
5593.94845 1.61490e-16
5596.55303 1.63161e-16
5599.15761 1.60136e-16
5601.76218 1.57647e-16
5604.36676 1.62625e-16
5606.97134 1.62909e-16
5609.57592 1.60310e-16
5612.18050 1.56509e-16
5614.78508 1.54389e-16
5617.38966 1.58414e-16
5619.99424 1.55911e-16
5622.59882 1.54466e-16
5625.20340 1.58557e-16
5627.80798 1.57481e-16
5630.41255 1.55009e-16
5633.01713 1.57695e-16
5635.62171 1.53600e-16
5638.22629 1.54271e-16
5640.83087 1.52461e-16
5643.43545 1.57943e-16
5646.04003 1.58343e-16
5648.64461 1.49243e-16
5651.24919 1.49705e-16
5653.85377 1.52339e-16
5656.45835 1.53304e-16
5659.06293 1.49970e-16
5661.66750 1.51462e-16
5664.27208 1.54215e-16
5666.87666 1.51750e-16
5669.48124 1.53571e-16
5672.08582 1.48976e-16
5674.69040 1.46338e-16
5677.29498 1.49576e-16
5679.89956 1.49997e-16
5682.50414 1.49260e-16
5685.10872 1.49428e-16
5687.71329 1.49253e-16
5690.31787 1.47082e-16
5692.92245 1.46472e-16
5695.52703 1.47226e-16
5698.13161 1.50274e-16
5700.73619 1.48195e-16
5703.34077 1.47493e-16
5705.94535 1.45458e-16
5708.54993 1.44203e-16
5711.15451 1.46337e-16
5713.75908 1.45345e-16
5716.36366 1.44730e-16
5718.96824 1.44766e-16
5721.57282 1.45857e-16
5724.17740 1.47500e-16
5726.78198 1.46076e-16
5729.38656 1.47397e-16
5731.99114 1.44245e-16
5734.59572 1.44739e-16
5737.20030 1.46424e-16
5739.80488 1.42141e-16
5742.40945 1.44242e-16
5745.01403 1.42605e-16
5747.61861 1.42232e-16
5750.22319 1.41780e-16
5752.82777 1.42259e-16
5755.43235 1.46360e-16
5758.03693 1.43724e-16
5760.64151 1.41455e-16
5763.24609 1.41431e-16
5765.85067 1.38826e-16
5768.45525 1.39019e-16
5771.05983 1.38952e-16
5773.66440 1.38421e-16
5776.26898 1.35443e-16
5778.87356 1.37332e-16
5781.47814 1.41160e-16
5784.08272 1.37720e-16
5786.68730 1.35895e-16
5789.29188 1.38868e-16
5791.89646 1.39543e-16
5794.50104 1.38124e-16
5797.10562 1.39953e-16
5799.71019 1.40258e-16
5802.31477 1.39930e-16
5804.91935 1.40006e-16
5807.52393 1.41585e-16
5810.12851 1.40792e-16
5812.73309 1.40295e-16
5815.33767 1.39092e-16
5817.94225 1.38809e-16
5820.54683 1.38442e-16
5823.15141 1.37352e-16
5825.75598 1.40368e-16
5828.36056 1.39336e-16
5830.96514 1.37980e-16
5833.56972 1.35675e-16
5836.17430 1.41501e-16
5838.77888 1.38911e-16
5841.38346 1.39164e-16
5843.98804 1.38206e-16
5846.59262 1.36721e-16
5849.19720 1.38041e-16
5851.80178 1.36581e-16
5854.40636 1.39648e-16
5857.01093 1.37339e-16
5859.61551 1.37626e-16
5862.22009 1.38426e-16
5864.82467 1.32849e-16
5867.42925 1.31648e-16
5870.03383 1.33683e-16
5872.63841 1.35196e-16
5875.24299 1.31800e-16
5877.84757 1.31610e-16
5880.45215 1.26921e-16
5883.05673 1.24410e-16
5885.66130 1.23076e-16
5888.26588 1.22019e-16
5890.87046 1.20499e-16
5893.47504 1.24250e-16
5896.07962 1.24006e-16
5898.68420 1.25096e-16
5901.28878 1.23524e-16
5903.89336 1.27450e-16
5906.49794 1.28120e-16
5909.10252 1.27160e-16
5911.70709 1.23690e-16
5914.31167 1.23759e-16
5916.91625 1.27185e-16
5919.52083 1.28143e-16
5922.12541 1.25231e-16
5924.72999 1.25504e-16
5927.33457 1.28554e-16
5929.93915 1.27658e-16
5932.54373 1.26072e-16
5935.14831 1.27625e-16
5937.75288 1.28957e-16
5940.35746 1.27268e-16
5942.96204 1.24152e-16
5945.56662 1.24431e-16
5948.17120 1.25922e-16
5950.77578 1.25675e-16
5953.38036 1.26892e-16
5955.98494 1.26390e-16
5958.58952 1.23417e-16
5961.19410 1.23345e-16
5963.79868 1.25099e-16
5966.40326 1.24253e-16
5969.00783 1.24849e-16
5971.61241 1.23467e-16
5974.21699 1.25462e-16
5976.82157 1.25622e-16
5979.42615 1.20921e-16
5982.03073 1.23899e-16
5984.63531 1.22936e-16
5987.23989 1.24815e-16
5989.84447 1.26123e-16
5992.44905 1.22994e-16
5995.05362 1.24256e-16
5997.65820 1.26391e-16
6000.26278 1.20407e-16
6002.86736 1.18218e-16
6005.47194 1.21687e-16
6008.07652 1.21133e-16
6010.68110 1.23372e-16
6013.28568 1.23657e-16
6015.89026 1.22534e-16
6018.49484 1.21909e-16
6021.09941 1.25097e-16
6023.70399 1.25209e-16
6026.30857 1.21867e-16
6028.91315 1.21025e-16
6031.51773 1.26422e-16
6034.12231 1.24456e-16
6036.72689 1.24005e-16
6039.33147 1.27622e-16
6041.93605 1.25085e-16
6044.54063 1.25401e-16
6047.14521 1.27177e-16
6049.74978 1.23153e-16
6052.35436 1.23990e-16
6054.95894 1.22044e-16
6057.56352 1.21992e-16
6060.16810 1.25112e-16
6062.77268 1.25263e-16
6065.37726 1.25037e-16
6067.98184 1.27827e-16
6070.58642 1.28251e-16
6073.19100 1.25255e-16
6075.79558 1.23761e-16
6078.40016 1.22091e-16
6081.00473 1.22590e-16
6083.60931 1.20021e-16
6086.21389 1.15939e-16
6088.81847 1.20403e-16
6091.42305 1.24708e-16
6094.02763 1.22201e-16
6096.63221 1.20395e-16
6099.23679 1.20227e-16
6101.84137 1.22494e-16
6104.44595 1.19068e-16
6107.05052 1.19703e-16
6109.65510 1.18547e-16
6112.25968 1.18065e-16
6114.86426 1.17090e-16
6117.46884 1.20950e-16
6120.07342 1.16579e-16
6122.67800 1.15676e-16
6125.28258 1.17320e-16
6127.88716 1.17548e-16
6130.49174 1.12070e-16
6133.09631 1.13803e-16
6135.70089 1.14009e-16
6138.30547 1.14451e-16
6140.91005 1.13037e-16
6143.51463 1.14227e-16
6146.11921 1.15012e-16
6148.72379 1.13980e-16
6151.32837 1.13951e-16
6153.93295 1.15923e-16
6156.53753 1.14790e-16
6159.14211 1.12143e-16
6161.74669 1.11685e-16
6164.35126 1.12868e-16
6166.95584 1.13750e-16
6169.56042 1.14388e-16
6172.16500 1.15327e-16
6174.76958 1.12151e-16
6177.37416 1.10435e-16
6179.97874 1.13112e-16
6182.58332 1.13879e-16
6185.18790 1.11110e-16
6187.79248 1.08587e-16
6190.39706 1.07197e-16
6193.00163 1.05600e-16
6195.60621 1.07444e-16
6198.21079 1.08281e-16
6200.81537 1.07353e-16
6203.41995 1.08558e-16
6206.02453 1.08303e-16
6208.62911 1.08545e-16
6211.23369 1.08737e-16
6213.83827 1.06203e-16
6216.44285 1.07612e-16
6219.04742 1.05989e-16
6221.65200 1.06558e-16
6224.25658 1.08744e-16
6226.86116 1.08001e-16
6229.46574 1.05601e-16
6232.07032 1.07627e-16
6234.67490 1.10225e-16
6237.27948 1.09176e-16
6239.88406 1.07169e-16
6242.48864 1.05529e-16
6245.09321 1.08537e-16
6247.69779 1.06392e-16
6250.30237 1.03314e-16
6252.90695 1.04729e-16
6255.51153 1.08727e-16
6258.11611 1.10201e-16
6260.72069 1.10267e-16
6263.32527 1.07983e-16
6265.92985 1.07566e-16
6268.53443 1.06176e-16
6271.13901 1.04376e-16
6273.74359 1.03955e-16
6276.34816 1.01572e-16
6278.95274 1.00117e-16
6281.55732 1.01894e-16
6284.16190 1.02143e-16
6286.76648 1.04068e-16
6289.37106 1.02321e-16
6291.97564 1.00604e-16
6294.58022 1.05328e-16
6297.18480 1.07196e-16
6299.78938 1.08429e-16
6302.39395 1.03189e-16
6304.99853 1.04396e-16
6307.60311 1.09575e-16
6310.20769 1.08833e-16
6312.81227 1.07027e-16
6315.41685 1.07798e-16
6318.02143 1.10261e-16
6320.62601 1.08961e-16
6323.23059 1.08726e-16
6325.83517 1.08872e-16
6328.43975 1.12035e-16
6331.04432 1.11902e-16
6333.64890 1.10022e-16
6336.25348 1.11061e-16
6338.85806 1.12885e-16
6341.46264 1.12519e-16
6344.06722 1.13083e-16
6346.67180 1.11880e-16
6349.27638 1.14448e-16
6351.88096 1.12279e-16
6354.48554 1.13547e-16
6357.09011 1.16712e-16
6359.69469 1.15840e-16
6362.29927 1.16664e-16
6364.90385 1.15322e-16
6367.50843 1.16985e-16
6370.11301 1.13736e-16
6372.71759 1.14310e-16
6375.32217 1.16346e-16
6377.92675 1.13969e-16
6380.53133 1.13455e-16
6383.13591 1.14493e-16
6385.74049 1.16154e-16
6388.34506 1.16548e-16
6390.94964 1.17525e-16
6393.55422 1.18063e-16
6396.15880 1.16226e-16
6398.76338 1.14618e-16
6401.36796 1.18140e-16
6403.97254 1.16963e-16
6406.57712 1.17698e-16
6409.18170 1.17423e-16
6411.78628 1.16406e-16
6414.39085 1.18607e-16
6416.99543 1.20458e-16
6419.60001 1.19567e-16
6422.20459 1.17921e-16
6424.80917 1.18635e-16
6427.41375 1.18294e-16
6430.01833 1.20534e-16
6432.62291 1.21123e-16
6435.22749 1.21240e-16
6437.83207 1.24363e-16
6440.43665 1.17384e-16
6443.04122 1.19231e-16
6445.64580 1.19398e-16
6448.25038 1.18576e-16
6450.85496 1.20259e-16
6453.45954 1.20838e-16
6456.06412 1.23798e-16
6458.66870 1.25772e-16
6461.27328 1.19313e-16
6463.87786 1.16895e-16
6466.48244 1.20615e-16
6469.08702 1.19756e-16
6471.69159 1.17766e-16
6474.29617 1.19452e-16
6476.90075 1.19991e-16
6479.50533 1.20201e-16
6482.10991 1.23086e-16
6484.71449 1.22217e-16
6487.31907 1.19201e-16
6489.92365 1.19600e-16
6492.52823 1.24015e-16
6495.13281 1.23009e-16
6497.73739 1.21128e-16
6500.34196 1.23133e-16
6502.94654 1.25882e-16
6505.55112 1.27237e-16
6508.15570 1.26812e-16
6510.76028 1.19598e-16
6513.36486 1.22951e-16
6515.96944 1.24599e-16
6518.57402 1.20733e-16
6521.17860 1.23380e-16
6523.78318 1.23212e-16
6526.38775 1.23028e-16
6528.99233 1.23716e-16
6531.59691 1.22710e-16
6534.20149 1.22685e-16
6536.80607 1.25427e-16
6539.41065 1.24390e-16
6542.01523 1.23778e-16
6544.61981 1.24028e-16
6547.22439 1.23437e-16
6549.82897 1.23275e-16
6552.43354 1.20777e-16
6555.03813 1.21363e-16
6557.64270 1.24367e-16
6560.24728 1.23535e-16
6562.85186 1.23298e-16
6565.45644 1.23650e-16
6568.06102 1.23593e-16
6570.66560 1.25557e-16
6573.27018 1.26336e-16
6575.87476 1.24409e-16
6578.47934 1.22926e-16
6581.08392 1.21686e-16
6583.68849 1.20178e-16
6586.29307 1.19432e-16
6588.89765 1.21485e-16
6591.50223 1.23452e-16
6594.10681 1.26663e-16
6596.71139 1.21895e-16
6599.31597 1.21763e-16
6601.92055 1.21628e-16
6604.52513 1.22676e-16
6607.12971 1.21895e-16
6609.73429 1.22745e-16
6612.33886 1.24852e-16
6614.94344 1.23890e-16
6617.54802 1.24968e-16
6620.15260 1.25105e-16
6622.75718 1.24486e-16
6625.36176 1.26388e-16
6627.96634 1.24035e-16
6630.57092 1.21459e-16
6633.17550 1.22666e-16
6635.78008 1.24853e-16
6638.38465 1.25090e-16
6640.98923 1.23911e-16
6643.59381 1.24084e-16
6646.19839 1.24710e-16
6648.80297 1.23749e-16
6651.40755 1.22180e-16
6654.01213 1.23483e-16
6656.61671 1.23473e-16
6659.22129 1.24392e-16
6661.82587 1.24975e-16
6664.43044 1.21845e-16
6667.03502 1.23717e-16
6669.63960 1.24987e-16
6672.24418 1.23509e-16
6674.84876 1.21133e-16
6677.45334 1.21391e-16
6680.05792 1.20875e-16
6682.66250 1.19919e-16
6685.26708 1.19098e-16
6687.87166 1.20692e-16
6690.47624 1.20584e-16
6693.08082 1.20175e-16
6695.68539 1.20175e-16
6698.28997 1.19725e-16
6700.89455 1.19378e-16
6703.49913 1.20698e-16
6706.10371 1.20448e-16
6708.70829 1.19594e-16
6711.31287 1.19254e-16
6713.91745 1.20365e-16
6716.52203 1.20147e-16
6719.12661 1.18380e-16
6721.73118 1.18276e-16
6724.33576 1.18618e-16
6726.94034 1.20813e-16
6729.54492 1.20792e-16
6732.14950 1.16906e-16
6734.75408 1.17678e-16
6737.35866 1.17600e-16
6739.96324 1.15864e-16
6742.56782 1.15100e-16
6745.17240 1.17841e-16
6747.77698 1.17073e-16
6750.38155 1.14005e-16
6752.98613 1.14315e-16
6755.59071 1.15038e-16
6758.19529 1.16351e-16
6760.79987 1.14009e-16
6763.40445 1.13689e-16
6766.00903 1.13764e-16
6768.61361 1.15169e-16
6771.21819 1.15264e-16
6773.82277 1.33136e-16
6789.45024 1.29553e-16
6792.05482 1.10783e-16
6794.65940 1.12005e-16
6797.26398 1.16051e-16
6799.86856 1.17047e-16
6802.47314 1.17413e-16
6805.07772 1.18925e-16
6807.68229 1.15975e-16
6810.28687 1.12830e-16
6812.89145 1.10991e-16
6815.49603 1.12653e-16
6818.10061 1.14219e-16
6820.70519 1.10379e-16
6823.30977 1.11228e-16
6825.91435 1.10641e-16
6828.51893 1.10314e-16
6831.12351 1.11921e-16
6833.72808 1.13278e-16
6836.33266 1.11804e-16
6838.93724 1.14352e-16
6841.54182 1.15380e-16
6844.14640 1.11644e-16
6846.75098 1.10973e-16
6849.35556 1.10920e-16
6851.96014 1.10915e-16
6854.56472 1.10046e-16
6857.16930 1.07958e-16
6859.77388 1.03862e-16
6862.37846 1.00854e-16
6864.98303 9.59662e-17
6867.58761 8.38917e-17
6870.19219 7.38502e-17
6872.79677 7.30445e-17
6875.40135 8.02924e-17
6878.00593 8.61591e-17
6880.61051 8.78874e-17
6883.21509 9.43854e-17
6885.81967 9.23643e-17
6888.42425 8.71955e-17
6891.02882 9.04386e-17
6893.63340 9.15108e-17
6896.23798 9.26397e-17
6898.84256 9.23350e-17
6901.44714 9.29675e-17
6904.05172 9.70362e-17
6906.65630 9.91490e-17
6909.26088 9.71907e-17
6911.86546 9.80228e-17
6914.47004 1.01737e-16
6917.07462 1.00978e-16
6919.67919 9.97379e-17
6922.28377 9.89149e-17
6924.88835 9.86054e-17
6927.49293 9.84758e-17
6930.09751 9.89858e-17
6932.70209 9.94814e-17
6935.30667 1.04467e-16
6937.91125 1.07359e-16
6940.51583 1.05725e-16
6943.12041 1.05062e-16
6945.72498 1.02367e-16
6948.32956 1.00674e-16
6950.93414 1.01984e-16
6953.53872 1.02754e-16
6956.14330 1.02913e-16
6958.74788 9.99585e-17
6961.35246 1.01526e-16
6963.95704 9.96401e-17
6966.56162 9.40454e-17
6969.16620 1.00704e-16
6971.77077 1.03074e-16
6974.37536 9.99608e-17
6976.97993 9.75318e-17
6979.58451 9.82214e-17
6982.18909 9.73002e-17
6984.79367 9.88706e-17
6987.39825 9.83048e-17
6990.00283 9.79429e-17
6992.60741 9.77675e-17
6995.21199 9.48525e-17
6997.81657 9.32232e-17
7000.42115 9.44262e-17
7003.02572 9.48862e-17
7005.63030 9.72321e-17
7008.23488 9.49505e-17
7010.83946 9.34389e-17
7013.44404 9.34670e-17
7016.04862 9.17326e-17
7018.65320 9.30840e-17
7021.25778 9.36217e-17
7023.86236 9.27177e-17
7026.46694 9.43156e-17
7029.07151 9.63521e-17
7031.67609 9.55737e-17
7034.28067 9.68448e-17
7036.88525 9.80038e-17
7039.48983 9.13545e-17
7042.09441 9.20759e-17
7044.69899 9.27881e-17
7047.30357 9.36225e-17
7049.90815 9.28649e-17
7052.51273 9.12316e-17
7055.11731 9.28063e-17
7057.72188 9.28560e-17
7060.32646 9.49061e-17
7062.93104 9.28985e-17
7065.53562 9.11926e-17
7068.14020 9.08642e-17
7070.74478 8.95702e-17
7073.34936 8.96703e-17
7075.95394 9.17475e-17
7078.55852 9.48022e-17
7081.16310 9.24374e-17
7083.76768 9.05542e-17
7086.37225 9.32684e-17
7088.97683 9.11544e-17
7091.58141 8.85172e-17
7094.18599 9.12586e-17
7096.79057 9.21125e-17
7099.39515 9.13429e-17
7101.99973 9.29685e-17
7104.60431 9.24431e-17
7107.20889 8.99387e-17
7109.81347 9.27240e-17
7112.41805 9.09283e-17
7115.02262 9.20853e-17
7117.62720 9.14100e-17
7120.23178 8.86153e-17
7122.83636 8.99806e-17
7125.44094 9.08097e-17
7128.04552 9.19077e-17
7130.65010 9.00698e-17
7133.25468 8.91000e-17
7135.85926 9.02292e-17
7138.46384 8.75054e-17
7141.06841 8.62956e-17
7143.67299 8.84847e-17
7146.27757 8.92815e-17
7148.88215 8.72867e-17
7151.48673 8.65438e-17
7154.09131 8.55566e-17
7156.69589 8.53530e-17
7159.30047 8.70260e-17
7161.90505 8.51151e-17
7164.50963 8.43521e-17
7167.11421 8.33342e-17
7169.71879 7.60546e-17
7172.32336 7.47031e-17
7174.92794 7.54402e-17
7177.53252 7.25586e-17
7180.13710 7.23372e-17
7182.74168 7.18229e-17
7185.34626 7.22760e-17
7187.95084 7.31727e-17
7190.55542 7.36369e-17
7193.16000 7.45358e-17
7195.76458 7.00844e-17
7198.36915 6.93638e-17
7200.97373 7.14788e-17
7203.57831 7.13429e-17
7206.18289 7.28622e-17
7208.78747 7.80960e-17
7211.39205 8.01806e-17
7213.99663 8.15545e-17
7216.60121 8.07905e-17
7219.20579 8.14032e-17
7221.81037 8.35555e-17
7224.41495 8.40386e-17
7227.01952 7.97799e-17
7229.62410 7.58240e-17
7232.22868 7.73637e-17
7234.83326 7.46693e-17
7237.43784 7.06122e-17
7240.04242 7.23038e-17
7242.64700 7.27809e-17
7245.25158 7.32612e-17
7247.85616 7.47071e-17
7250.46074 7.59009e-17
7253.06531 7.43699e-17
7255.66989 7.42709e-17
7258.27447 7.46899e-17
7260.87905 7.58491e-17
7263.48363 7.58096e-17
7266.08821 7.65624e-17
7268.69279 7.63514e-17
7271.29737 7.68565e-17
7273.90195 7.58937e-17
7276.50653 7.27968e-17
7279.11111 7.16855e-17
7281.71569 7.62429e-17
7284.32026 7.80808e-17
7286.92484 7.62512e-17
7289.52942 7.75120e-17
7292.13400 7.60755e-17
7294.73858 7.42113e-17
7297.34316 7.59341e-17
7299.94774 7.65803e-17
7302.55232 7.64373e-17
7305.15690 7.53545e-17
7307.76148 7.43814e-17
7310.36605 7.53453e-17
7312.97063 7.58094e-17
7315.57521 7.21940e-17
7318.17979 7.52138e-17
7320.78437 8.02355e-17
7323.38895 7.76155e-17
7325.99353 8.03851e-17
7328.59811 8.09957e-17
7331.20269 8.16939e-17
7333.80727 7.90793e-17
7336.41184 7.92665e-17
7339.01642 7.88138e-17
7341.62100 7.90318e-17
7344.22558 7.99639e-17
7346.83016 7.82267e-17
7349.43474 7.72123e-17
7352.03932 7.97308e-17
7354.64390 7.87754e-17
7357.24848 7.78627e-17
7359.85306 7.74376e-17
7362.45764 7.67160e-17
7365.06221 7.76497e-17
7367.66679 7.81038e-17
7370.27137 7.97551e-17
7372.87595 8.05923e-17
7375.48053 8.11627e-17
7378.08511 8.35656e-17
7380.68969 7.85904e-17
7383.29427 7.54542e-17
7385.89885 7.72081e-17
7388.50343 7.64013e-17
7391.10801 7.59322e-17
7393.71259 7.58779e-17
7396.31716 7.63190e-17
7398.92174 7.76039e-17
7401.52632 7.51792e-17
7404.13090 7.59608e-17
7406.73548 7.75700e-17
7409.34006 7.60666e-17
7411.94464 7.63714e-17
7414.54922 7.68441e-17
7417.15380 7.49456e-17
7419.75838 7.46148e-17
7422.36295 7.41936e-17
7424.96753 7.39399e-17
7427.57211 7.59458e-17
7430.17669 7.61147e-17
7432.78127 7.50555e-17
7435.38585 7.52334e-17
7437.99043 7.40988e-17
7440.59501 7.23638e-17
7443.19959 7.35272e-17
7445.80417 7.33450e-17
7448.40874 7.03689e-17
7451.01332 7.41858e-17
7453.61790 7.37771e-17
7456.22248 7.09041e-17
7458.82706 7.19567e-17
7461.43164 7.09980e-17
7464.03622 7.29580e-17
7466.64080 7.32986e-17
7469.24538 7.83629e-17
7471.84996 7.40637e-17
7474.45454 7.33830e-17
7477.05912 7.36947e-17
7479.66369 7.22003e-17
7482.26827 7.24569e-17
7484.87285 7.37584e-17
7487.47743 7.15848e-17
7490.08201 7.18079e-17
7492.68659 7.14213e-17
7495.29117 7.05880e-17
7497.89575 6.78239e-17
7500.50033 6.54018e-17
7503.10491 6.96900e-17
7505.70949 7.14511e-17
7508.31406 6.97223e-17
7510.91864 7.04578e-17
7513.52322 6.92512e-17
7516.12780 6.82831e-17
7518.73238 6.86682e-17
7521.33696 6.96260e-17
7523.94154 6.76487e-17
7526.54612 6.93782e-17
7529.15070 6.88898e-17
7531.75528 6.74739e-17
7534.35985 6.62005e-17
7536.96443 6.62436e-17
7539.56901 6.57455e-17
7542.17359 6.78308e-17
7544.77817 6.64067e-17
7547.38275 6.79633e-17
7549.98733 6.49172e-17
7552.59191 6.56158e-17
7555.19649 6.84937e-17
7557.80107 6.89464e-17
7560.40564 6.75589e-17
7563.01022 6.78797e-17
7565.61480 6.85793e-17
7568.21938 6.75811e-17
7570.82396 6.57195e-17
7573.42854 6.62548e-17
7576.03312 6.78712e-17
7578.63770 6.67072e-17
7581.24228 6.55836e-17
7583.84686 6.30649e-17
7586.45144 6.43251e-17
7589.05602 6.09033e-17
7591.66059 5.31344e-17
7594.26517 4.28818e-17
7596.86975 3.04294e-17
7599.47433 1.88445e-17
7602.07891 1.22327e-17
7604.68349 9.21851e-18
7607.28807 1.12232e-17
7609.89265 1.33208e-17
7612.49723 1.90202e-17
7615.10181 2.78540e-17
7617.70638 3.52842e-17
7620.31096 3.80052e-17
7622.91554 3.68625e-17
7625.52012 3.09741e-17
7628.12470 2.51594e-17
7630.72928 2.46043e-17
7633.33386 2.61401e-17
7635.93844 2.82146e-17
7638.54302 2.99879e-17
7641.14760 3.04855e-17
7643.75217 3.36029e-17
7646.35675 3.70612e-17
7648.96133 3.79325e-17
7651.56591 4.12001e-17
7654.17049 4.46284e-17
7656.77507 4.72076e-17
7659.37965 4.96940e-17
7661.98423 5.38211e-17
7664.58881 5.58281e-17
7667.19339 5.82168e-17
7669.79797 5.91455e-17
7672.40254 6.19311e-17
7675.00712 5.85440e-17
7677.61170 5.79643e-17
7680.21628 6.21945e-17
7682.82086 6.18980e-17
7685.42544 6.22281e-17
7688.03002 6.33859e-17
7690.63460 6.53189e-17
7693.23918 6.63063e-17
7695.84376 6.51566e-17
7698.44834 6.64546e-17
7701.05292 6.67302e-17
7703.65749 6.59175e-17
7706.26207 6.77586e-17
7708.86665 6.70354e-17
7711.47123 6.68438e-17
7714.07581 6.77146e-17
7716.68039 6.62420e-17
7719.28497 6.77018e-17
7721.88955 6.54109e-17
7724.49413 6.67889e-17
7727.09871 6.77556e-17
7729.70328 6.96520e-17
7732.30786 6.97544e-17
7734.91244 6.89856e-17
7737.51702 6.89848e-17
7740.12160 6.97837e-17
7742.72618 7.05208e-17
7745.33076 6.77707e-17
7747.93534 6.99910e-17
7750.53992 7.04781e-17
7753.14450 6.89010e-17
7755.74907 6.79760e-17
7758.35365 6.81934e-17
7760.95823 6.92002e-17
7763.56281 6.97633e-17
7766.16739 6.62555e-17
7768.77197 6.69371e-17
7771.37655 6.98647e-17
7773.98113 7.15709e-17
7776.58571 6.93960e-17
7779.19029 6.58325e-17
7781.79487 7.01326e-17
7784.39945 7.11544e-17
7787.00402 7.04070e-17
7789.60860 7.16522e-17
7792.21318 6.92830e-17
7794.81776 6.88197e-17
7797.42234 7.31317e-17
7800.02692 7.05861e-17
7802.63150 7.20071e-17
7805.23608 6.88297e-17
7807.84066 6.85595e-17
7810.44524 7.14402e-17
7813.04982 6.94701e-17
7815.65439 7.05821e-17
7818.25897 7.45454e-17
7820.86355 7.38239e-17
7823.46813 7.21584e-17
7826.07271 7.24203e-17
7828.67729 7.03912e-17
7831.28187 7.39738e-17
7833.88645 7.37398e-17
7836.49103 6.85104e-17
7839.09561 6.92548e-17
7841.70018 7.25214e-17
7844.30476 7.49813e-17
7846.90934 7.29558e-17
7849.51392 7.19319e-17
7852.11850 7.59212e-17
7854.72308 7.43134e-17
7857.32766 7.39567e-17
7859.93224 7.22300e-17
7862.53682 7.35780e-17
7865.14140 7.61071e-17
7867.74597 7.70015e-17
7870.35055 7.43271e-17
7872.95513 7.61496e-17
7875.55971 7.50394e-17
7878.16429 7.41295e-17
7880.76887 7.55188e-17
7883.37345 7.36188e-17
7885.97803 7.53018e-17
7888.58261 7.53908e-17
7891.18719 7.05145e-17
7893.79177 7.05080e-17
7896.39635 7.37460e-17
7899.00092 7.18225e-17
7901.60550 7.19521e-17
7904.21008 7.23173e-17
7906.81466 7.05800e-17
7909.41924 7.30095e-17
7912.02382 7.20259e-17
7914.62840 6.93488e-17
7917.23298 7.08212e-17
7919.83756 7.19245e-17
7922.44214 7.22993e-17
7925.04672 7.11736e-17
7927.65129 7.39973e-17
7930.25587 7.28464e-17
7932.86045 7.37126e-17
7935.46503 7.48544e-17
7938.06961 7.52141e-17
7940.67419 6.96422e-17
7943.27877 7.13850e-17
7945.88335 7.20628e-17
7948.48793 7.29124e-17
7951.09250 7.27129e-17
7953.69708 7.19055e-17
7956.30166 7.02974e-17
7958.90624 6.72081e-17
7961.51082 6.68965e-17
7964.11540 6.68559e-17
7966.71998 6.41537e-17
7969.32456 6.62354e-17
7971.92914 6.90646e-17
7974.53372 7.02490e-17
7977.13830 7.33711e-17
7979.74287 7.40554e-17
7982.34745 7.18659e-17
7984.95203 7.27314e-17
7987.55661 7.26058e-17
7990.16119 7.00953e-17
7992.76577 7.06140e-17
7995.37035 7.02385e-17
7997.97493 6.83415e-17
8000.57951 6.68880e-17
8003.18409 6.75901e-17
8005.78867 6.85053e-17
8008.39325 6.98374e-17
8010.99782 6.71693e-17
8013.60240 6.77137e-17
8016.20698 6.64337e-17
8018.81156 6.66933e-17
8021.41614 6.67736e-17
8024.02072 6.66381e-17
8026.62530 6.60016e-17
8029.22988 6.58179e-17
8031.83446 6.28865e-17
8034.43904 6.16699e-17
8037.04361 6.43976e-17
8039.64819 6.56159e-17
8042.25277 6.59892e-17
8044.85735 6.72743e-17
8047.46193 6.54801e-17
8050.06651 6.50825e-17
8052.67109 6.53816e-17
8055.27567 6.27740e-17
8057.88025 6.13876e-17
8060.48483 6.23827e-17
8063.08940 6.33485e-17
8065.69398 6.31186e-17
8068.29856 6.44326e-17
8070.90314 6.40472e-17
8073.50772 6.29450e-17
8076.11230 6.27381e-17
8078.71688 6.20710e-17
8081.32146 5.79669e-17
8083.92604 5.81861e-17
8086.53062 5.97617e-17
8089.13520 5.94229e-17
8091.73978 5.62801e-17
8094.34435 5.69008e-17
8096.94893 5.63602e-17
8099.55351 5.47672e-17
8102.15809 5.48540e-17
8104.76267 5.47560e-17
8107.36725 5.41792e-17
8109.97183 5.47954e-17
8112.57641 5.40450e-17
8115.18099 5.36537e-17
8117.78557 5.33640e-17
8120.39015 5.13043e-17
8122.99472 5.06578e-17
8125.59930 5.20009e-17
8128.20388 5.02207e-17
8130.80846 4.74717e-17
8133.41304 4.79376e-17
8136.01762 4.78750e-17
8138.62220 4.81970e-17
8141.22678 4.73223e-17
8143.83136 4.42003e-17
8146.43594 4.47258e-17
8149.04051 4.15759e-17
8151.64509 4.25227e-17
8154.24967 4.17129e-17
8156.85425 4.46993e-17
8159.45883 4.50346e-17
8162.06341 4.15257e-17
8164.66799 4.18285e-17
8167.27257 4.37211e-17
8169.87715 4.32856e-17
8172.48173 4.01626e-17
8175.08630 4.24598e-17
8177.69088 4.27600e-17
8180.29546 4.14558e-17
8182.90004 4.14423e-17
8185.50462 4.12524e-17
8188.10920 4.20504e-17
8190.71378 4.11588e-17
8193.31836 4.11766e-17
8195.92294 4.37561e-17
8198.52752 4.38042e-17
8201.13210 4.28026e-17
8203.73668 4.32921e-17
8206.34125 4.50904e-17
8208.94583 4.66871e-17
8211.55041 4.42564e-17
8214.15499 4.31616e-17
8216.75957 4.42789e-17
8219.36415 4.11071e-17
8221.96873 3.89386e-17
8224.57331 3.76135e-17
8227.17789 3.52643e-17
8229.78247 3.57031e-17
8232.38704 3.80731e-17
8234.99162 4.09794e-17
8237.59620 4.48701e-17
8240.20078 4.43314e-17
8242.80536 4.29477e-17
8245.40994 4.53730e-17
8248.01452 4.61385e-17
8250.61910 4.28719e-17
8253.22368 4.39608e-17
8255.82826 4.19151e-17
8258.43283 4.12153e-17
8261.03741 3.97044e-17
8263.64199 3.95191e-17
8266.24657 3.51024e-17
8268.85115 3.54715e-17
8271.45573 3.88896e-17
8274.06031 3.79414e-17
8276.66489 3.86058e-17
8279.26947 3.70763e-17
8281.87405 3.63733e-17
8284.47863 4.06894e-17
8287.08321 4.21333e-17
8289.68778 4.09232e-17
8292.29236 4.20697e-17
8294.89694 4.28575e-17
8297.50152 4.55503e-17
8300.10610 4.95064e-17
8302.71068 4.47306e-17
8305.31526 4.35571e-17
8307.91984 4.20886e-17
8310.52442 3.93899e-17
8313.12900 4.05023e-17
8315.73358 4.13469e-17
8318.33815 3.97182e-17
8320.94273 3.99258e-17
8323.54731 3.95912e-17
8326.15189 4.39262e-17
8328.75647 4.17457e-17
8331.36105 4.04154e-17
8333.96563 4.39412e-17
8336.57021 4.51013e-17
8339.17479 4.49684e-17
8341.77937 4.52670e-17
8344.38394 4.55823e-17
8346.98852 4.69595e-17
8349.59310 4.78274e-17
8352.19768 4.66034e-17
8354.80226 4.44799e-17
8357.40684 4.56467e-17
8360.01142 4.87194e-17
8362.61600 5.01960e-17
8365.22058 4.97782e-17
8367.82516 4.67345e-17
8370.42973 4.86058e-17
8373.03431 4.95611e-17
8375.63889 5.01474e-17
8378.24347 5.02586e-17
8380.84805 5.01186e-17
8383.45263 4.78492e-17
8386.05721 4.70654e-17
8388.66179 5.11323e-17
8391.26637 5.69048e-17
8393.87095 5.35294e-17
8396.47553 5.37227e-17
8399.08010 5.46496e-17
8401.68468 5.14738e-17
8404.28926 4.63196e-17
8406.89384 4.49984e-17
8409.49842 4.99453e-17
8412.10300 5.35255e-17
8414.70758 4.95738e-17
8417.31216 4.57555e-17
8419.91674 4.98468e-17
8422.52132 5.30050e-17
8425.12590 5.34092e-17
8427.73048 5.29408e-17
8430.33505 5.51202e-17
8432.93963 5.62667e-17
8435.54421 5.49644e-17
8438.14879 5.53335e-17
8440.75337 5.63741e-17
8443.35795 5.96454e-17
8445.96253 5.75627e-17
8448.56711 5.44289e-17
8451.17169 5.41172e-17
8453.77627 5.48193e-17
8456.38084 5.31873e-17
8458.98542 5.58489e-17
8461.59000 5.03293e-17
8464.19458 5.21165e-17
8466.79916 5.08471e-17
8469.40374 5.30029e-17
8472.00832 5.89642e-17
8474.61290 5.64023e-17
8477.21748 5.81655e-17
8479.82206 5.86070e-17
8482.42663 5.79038e-17
8485.03121 5.83775e-17
8487.63579 5.75927e-17
8490.24037 6.14651e-17
8492.84495 6.02239e-17
8495.44953 5.97149e-17
8498.05411 6.10019e-17
8500.65869 6.21348e-17
8503.26327 5.80123e-17
8505.86785 5.46202e-17
8508.47243 5.91293e-17
8511.07700 6.01104e-17
8513.68158 5.92795e-17
8516.28616 6.15776e-17
8518.89074 6.14075e-17
8521.49532 6.28782e-17
8524.09990 6.17460e-17
8526.70448 5.83645e-17
8529.30906 5.73159e-17
8531.91364 5.43593e-17
8534.51822 6.10181e-17
8537.12280 5.95630e-17
8539.72738 6.01324e-17
8542.33195 6.20154e-17
8544.93653 6.36430e-17
8547.54111 6.43287e-17
8550.14569 6.47854e-17
8552.75027 6.63850e-17
8555.35485 6.48932e-17
8557.95943 6.25065e-17
8560.56401 6.53335e-17
8563.16859 6.59010e-17
8565.77317 6.55249e-17
8568.37774 6.44480e-17
8570.98232 6.31961e-17
8573.58690 6.34935e-17
8576.19148 6.41065e-17
8578.79606 6.72610e-17
8581.40064 6.75671e-17
8584.00522 6.76429e-17
8586.60980 6.67405e-17
8589.21438 6.45387e-17
8591.81896 6.26009e-17
8594.42353 6.30147e-17
8597.02811 6.44988e-17
8599.63269 6.65385e-17
8602.23727 6.58203e-17
8604.84185 6.44538e-17
8607.44643 6.68715e-17
8610.05101 6.44129e-17
8612.65559 6.20989e-17
8615.26017 6.47131e-17
8617.86475 6.69583e-17
8620.46933 6.90023e-17
8623.07390 6.66249e-17
8625.67848 6.70332e-17
8628.28306 6.73824e-17
8630.88764 6.36147e-17
8633.49222 6.11326e-17
8636.09680 6.40128e-17
8638.70138 6.15786e-17
8641.30596 6.11516e-17
8643.91054 6.42687e-17
8646.51512 6.43474e-17
8649.11970 6.37482e-17
8651.72428 6.29692e-17
8654.32885 6.29647e-17
8656.93343 6.72153e-17
8659.53801 6.65698e-17
8662.14259 7.07192e-17
8664.74717 6.81112e-17
8667.35175 6.86534e-17
8669.95633 6.84417e-17
8672.56091 6.66987e-17
8675.16549 6.66492e-17
8677.77007 6.88955e-17
8680.37464 6.85334e-17
8682.97922 6.74989e-17
8685.58380 6.74732e-17
8688.18838 6.88108e-17
8690.79296 6.77524e-17
8693.39754 6.62608e-17
8696.00212 6.61145e-17
8698.60670 6.62343e-17
8701.21128 6.66341e-17
8703.81586 6.18711e-17
8706.42043 6.34338e-17
8709.02501 6.57852e-17
8711.62959 6.66338e-17
8714.23417 6.46941e-17
8716.83875 7.06189e-17
8719.44333 6.81350e-17
8722.04791 6.68922e-17
8724.65249 6.64415e-17
8727.25707 6.86050e-17
8729.86165 6.80820e-17
8732.46623 6.81548e-17
8735.07080 6.81409e-17
8737.67538 6.91474e-17
8740.27996 6.54065e-17
8742.88454 6.69641e-17
8745.48912 7.00404e-17
8748.09370 7.04226e-17
8750.69828 7.14125e-17
8753.30286 7.41251e-17
8755.90744 8.05506e-17
8758.51202 7.50150e-17
8761.11660 7.16053e-17
8763.72118 7.48882e-17
8766.32575 7.27811e-17
8768.93033 7.00159e-17
8771.53491 6.69238e-17
8774.13949 6.94347e-17
8776.74407 6.89804e-17
8779.34865 6.46159e-17
8781.95323 6.14168e-17
8784.55781 5.96144e-17
8787.16239 6.30115e-17
8789.76697 6.63751e-17
8792.37154 6.56306e-17
8794.97612 6.58810e-17
8797.58070 7.11072e-17
8800.18528 7.28724e-17
8802.78986 6.81181e-17
8805.39444 6.59089e-17
8807.99902 6.53881e-17
8810.60360 5.91394e-17
8813.20818 5.01376e-17
8815.81276 4.73212e-17
8818.41734 5.47884e-17
8821.02191 5.74099e-17
8823.62649 6.29788e-17
8826.23107 6.49702e-17
8828.83565 6.37561e-17
8831.44023 6.55754e-17
8834.04481 6.61015e-17
8836.64939 6.64694e-17
8839.25397 6.25884e-17
8841.85855 6.04753e-17
8844.46313 6.16300e-17
8847.06770 6.49771e-17
8849.67228 6.72083e-17
8852.27686 6.93724e-17
8854.88144 7.24745e-17
8857.48602 6.95743e-17
8860.09060 6.97973e-17
8862.69518 7.00276e-17
8865.29976 6.55082e-17
8867.90434 7.06541e-17
8870.50892 7.01585e-17
8873.11349 6.53374e-17
8875.71808 5.69796e-17
8878.32265 5.13684e-17
8880.92723 5.35292e-17
8883.53181 5.86983e-17
8886.13639 5.46620e-17
8888.74097 5.24498e-17
8891.34555 6.15069e-17
8893.95013 6.43806e-17
8896.55471 6.78299e-17
8897.30976 6.78299e-17
8898.18124 6.84292e-17
8899.04270 6.90283e-17
8899.90416 6.94818e-17
8900.76562 6.99348e-17
8901.62708 7.01204e-17
8902.48855 7.03053e-17
8903.35001 7.02419e-17
8904.21147 7.01778e-17
8905.07293 7.00683e-17
8905.93439 6.99586e-17
8906.80587 6.99361e-17
8907.66734 6.99138e-17
8908.52880 6.99651e-17
8909.39026 7.00165e-17
8910.25172 7.01419e-17
8911.11318 7.02673e-17
8911.97465 7.04915e-17
8912.83611 7.07158e-17
8913.69757 7.10489e-17
8914.55903 7.13825e-17
8915.42049 7.18483e-17
8916.29197 7.23145e-17
8917.15343 7.29074e-17
8918.01490 7.35006e-17
8918.87636 7.40681e-17
8919.73782 7.46355e-17
8920.59928 7.50248e-17
8921.46074 7.54137e-17
8922.32221 7.55815e-17
8923.18367 7.57489e-17
8924.04513 7.56909e-17
8924.90659 7.56322e-17
8925.76805 7.55279e-17
8926.63953 7.54236e-17
8927.50100 7.55186e-17
8928.36246 7.56142e-17
8929.22392 7.59179e-17
8930.08538 7.62221e-17
8930.94684 7.66235e-17
8931.80831 7.70251e-17
8932.66977 7.74439e-17
8933.53123 7.78625e-17
8934.39269 7.82207e-17
8935.25415 7.85786e-17
8936.12563 7.89130e-17
8936.98709 7.92473e-17
8937.84856 7.97331e-17
8938.71002 8.02195e-17
8939.57148 8.08649e-17
8940.43294 8.15107e-17
8941.29440 8.20777e-17
8942.15587 8.26446e-17
8943.01733 8.29586e-17
8943.87879 8.32719e-17
8944.74025 8.32547e-17
8945.61173 8.32364e-17
8946.47319 8.29161e-17
8947.33466 8.25948e-17
8948.19612 8.23386e-17
8949.05758 8.20825e-17
8949.91904 8.21885e-17
8950.78050 8.22955e-17
8951.64197 8.26710e-17
8952.50343 8.30472e-17
8953.36489 8.35424e-17
8954.22635 8.40379e-17
8955.08781 8.42622e-17
8955.95929 8.44858e-17
8956.82075 8.40553e-17
8957.68222 8.36231e-17
8958.54368 8.30154e-17
8959.40514 8.24074e-17
8960.26660 8.23263e-17
8961.12806 8.22468e-17
8961.98953 8.27930e-17
8962.85099 8.33409e-17
8963.71245 8.43810e-17
8964.57391 8.54224e-17
8965.44539 8.66194e-17
8966.30685 8.78167e-17
8967.16832 8.86602e-17
8968.02978 8.95030e-17
8968.89124 9.00492e-17
8969.75270 9.05947e-17
8970.61416 9.14012e-17
8971.47563 9.22084e-17
8972.33709 9.34684e-17
8973.19855 9.47296e-17
8974.06001 9.62042e-17
8974.93149 9.76791e-17
8975.79295 9.90225e-17
8976.65441 1.00365e-16
8977.51588 1.01048e-16
8978.37734 1.01730e-16
8979.23880 1.01340e-16
8980.10026 1.00948e-16
8980.96172 9.92220e-17
8981.82319 9.74920e-17
8982.68465 9.45986e-17
8983.54611 9.17020e-17
8984.41759 8.91977e-17
8985.27905 8.66945e-17
8986.14051 8.60153e-17
8987.00198 8.53408e-17
8987.86344 8.69788e-17
8988.72490 8.86230e-17
8989.58636 9.26524e-17
8990.44782 9.66880e-17
8991.30928 1.01186e-16
8992.17075 1.05685e-16
8993.03221 1.08336e-16
8993.89367 1.10982e-16
8994.76515 1.11439e-16
8995.62661 1.11890e-16
8996.48807 1.10577e-16
8997.34954 1.09259e-16
8998.21100 1.07210e-16
8999.07246 1.05160e-16
8999.93392 1.03789e-16
9000.79538 1.02420e-16
9001.65685 1.02343e-16
9002.51831 1.02269e-16
9003.38979 1.03448e-16
9004.25125 1.04630e-16
9005.11271 1.06654e-16
9005.97417 1.08679e-16
9006.83563 1.10742e-16
9007.69710 1.12804e-16
9008.55856 1.14278e-16
9009.42002 1.15750e-16
9010.28148 1.16343e-16
9011.14295 1.16934e-16
9012.00441 1.16660e-16
9012.87589 1.16384e-16
9013.73735 1.15935e-16
9014.59881 1.15485e-16
9015.46027 1.15375e-16
9016.32173 1.15265e-16
9017.18320 1.15179e-16
9018.04466 1.15094e-16
9018.90612 1.14799e-16
9019.76758 1.14505e-16
9020.62904 1.14271e-16
9021.49051 1.14038e-16
9022.35197 1.14147e-16
9023.22345 1.14256e-16
9024.08491 1.15058e-16
9024.94637 1.15862e-16
9025.80783 1.17640e-16
9026.66930 1.19421e-16
9027.53076 1.21748e-16
9028.39222 1.24076e-16
9029.25368 1.26304e-16
9030.11514 1.28531e-16
9030.97660 1.30212e-16
9031.83807 1.31891e-16
9032.70955 1.32691e-16
9033.57101 1.33489e-16
9034.43247 1.33379e-16
9035.29393 1.33266e-16
9036.15539 1.32415e-16
9037.01686 1.31561e-16
9037.87832 1.30406e-16
9038.73978 1.29249e-16
9039.60124 1.28462e-16
9040.46270 1.27676e-16
9041.32417 1.27436e-16
9042.18563 1.27196e-16
9043.05711 1.27011e-16
9043.91857 1.26825e-16
9044.78003 1.26437e-16
9045.64149 1.26047e-16
9046.50295 1.25610e-16
9047.36442 1.25174e-16
9048.22588 1.24824e-16
9049.08734 1.24474e-16
9049.94880 1.24427e-16
9050.81027 1.24378e-16
9051.67173 1.24691e-16
9052.54321 1.25005e-16
9053.40467 1.25038e-16
9054.26613 1.25070e-16
9055.12759 1.24263e-16
9055.98905 1.23455e-16
9056.85052 1.22107e-16
9057.71198 1.20759e-16
9058.57344 1.19276e-16
9059.43490 1.17794e-16
9060.29636 1.16227e-16
9061.16784 1.14660e-16
9062.02931 1.13028e-16
9062.89077 1.11397e-16
9063.75223 1.09641e-16
9064.61369 1.07886e-16
9065.47515 1.05875e-16
9066.33662 1.03865e-16
9067.19808 1.02112e-16
9068.05954 1.00360e-16
9068.92100 9.97138e-17
9069.78246 9.90710e-17
9070.64393 9.93443e-17
9071.51540 9.96202e-17
9072.37687 9.98612e-17
9073.23833 1.00102e-16
9074.09979 9.99597e-17
9074.96125 9.98163e-17
9075.82271 9.95560e-17
9076.68418 9.92953e-17
9077.54564 9.90835e-17
9078.40710 9.88718e-17
9079.26856 9.88045e-17
9080.13002 9.87375e-17
9080.99149 9.88108e-17
9081.86297 9.88844e-17
9082.72443 9.87685e-17
9083.58589 9.86520e-17
9084.44735 9.81625e-17
9085.30881 9.76722e-17
9086.17028 9.71728e-17
9087.03174 9.66733e-17
9087.89320 9.64438e-17
9088.75466 9.62148e-17
9089.61612 9.58980e-17
9090.48760 9.55807e-17
9091.34906 9.48339e-17
9092.21053 9.40902e-17
9093.07199 9.32670e-17
9093.93345 9.24437e-17
9094.79491 9.19763e-17
9095.65637 9.15100e-17
9096.51784 9.12760e-17
9097.37930 9.10428e-17
9098.24076 9.07843e-17
9099.10222 9.05256e-17
9099.97370 9.03094e-17
9100.83516 9.00933e-17
9101.69663 9.00573e-17
9102.55809 9.00218e-17
9103.41955 9.04305e-17
9104.28101 9.08404e-17
9105.14247 9.20723e-17
9106.00393 9.33066e-17
9106.86540 9.49128e-17
9107.72686 9.65201e-17
9108.58832 9.73492e-17
9109.45980 9.81762e-17
9110.32126 9.77374e-17
9111.18272 9.72953e-17
9112.04419 9.58744e-17
9112.90565 9.44508e-17
9113.76711 9.26347e-17
9114.62857 9.08178e-17
9115.49003 8.98119e-17
9116.35150 8.88081e-17
9117.21296 8.92400e-17
9118.07442 8.96759e-17
9118.93588 9.06160e-17
9119.80736 9.15575e-17
9120.66882 9.20981e-17
9121.53028 9.26376e-17
9122.39175 9.21973e-17
9123.25321 9.17542e-17
9124.11467 8.99838e-17
9124.97613 8.82098e-17
9125.83760 8.59282e-17
9126.69906 8.36452e-17
9127.56052 8.18490e-17
9128.43200 8.00542e-17
9129.29346 7.92583e-17
9130.15492 7.84652e-17
9131.01638 7.90013e-17
9131.87785 7.95412e-17
9132.73931 8.11858e-17
9133.60077 8.28334e-17
9134.46223 8.50809e-17
9135.32369 8.73298e-17
9136.18516 8.96537e-17
9137.04662 9.19778e-17
9137.90808 9.38350e-17
9138.76954 9.56909e-17
9139.64102 9.67320e-17
9140.50248 9.77707e-17
9141.36395 9.78775e-17
9142.22541 9.79819e-17
9143.08687 9.69775e-17
9143.94833 9.59702e-17
9144.80979 9.36000e-17
9145.67125 9.12263e-17
9146.53272 8.77975e-17
9147.39418 8.43660e-17
9148.26566 8.09143e-17
9149.12712 7.74626e-17
9149.98858 7.49277e-17
9150.85004 7.23953e-17
9151.71151 7.15373e-17
9152.57297 7.06841e-17
9153.43443 7.17997e-17
9154.29589 7.29207e-17
9155.15735 7.50349e-17
9156.01882 7.71517e-17
9156.88028 7.92341e-17
9157.75176 8.13164e-17
9158.61322 8.28854e-17
9159.47468 8.44529e-17
9160.33614 8.51365e-17
9161.19760 8.58174e-17
9162.05907 8.56401e-17
9162.92053 8.54603e-17
9163.78199 8.46244e-17
9164.64345 8.37868e-17
9165.50492 8.22644e-17
9166.36638 8.07401e-17
9167.22784 7.84951e-17
9168.09932 7.62483e-17
9168.96078 7.38378e-17
9169.82224 7.14270e-17
9170.68370 6.96050e-17
9171.54517 6.77847e-17
9172.40663 6.69280e-17
9173.26809 6.60739e-17
9174.12955 6.63465e-17
9174.99101 6.66222e-17
9175.85248 6.75607e-17
9176.71394 6.85009e-17
9177.58542 6.90520e-17
9178.44688 6.96020e-17
9179.30834 6.94593e-17
9180.16980 6.93148e-17
9181.03127 6.91695e-17
9181.89273 6.90243e-17
9182.75419 6.92569e-17
9183.61565 6.94905e-17
9184.47711 6.99652e-17
9185.33857 7.04405e-17
9186.20004 7.09936e-17
9187.07152 7.15468e-17
9187.93298 7.17817e-17
9188.79444 7.20157e-17
9189.65590 7.17121e-17
9190.51736 7.14069e-17
9191.37883 7.11780e-17
9192.24029 7.09492e-17
9193.10175 7.13408e-17
9193.96321 7.17339e-17
9194.82467 7.25033e-17
9195.68614 7.32736e-17
9196.55762 7.40744e-17
9197.41908 7.48753e-17
9198.28054 7.53947e-17
9199.14200 7.59133e-17
9200.00346 7.58504e-17
9200.86492 7.57860e-17
9201.72639 7.53626e-17
9202.58785 7.49380e-17
9203.44931 7.45898e-17
9204.31077 7.42419e-17
9205.17224 7.39818e-17
9206.04371 7.37217e-17
9206.90518 7.33581e-17
9207.76664 7.29940e-17
9208.62810 7.25877e-17
9209.48956 7.21812e-17
9210.35102 7.19371e-17
9211.21249 7.16933e-17
9212.07395 7.18168e-17
9212.93541 7.19415e-17
9213.79687 7.26686e-17
9214.65833 7.33973e-17
9215.52981 7.46807e-17
9216.39127 7.59657e-17
9217.25274 7.73178e-17
9218.11420 7.86701e-17
9218.97566 7.97743e-17
9219.83712 8.08777e-17
9220.69859 8.18349e-17
9221.56005 8.27917e-17
9222.42151 8.36589e-17
9223.28297 8.45258e-17
9224.14443 8.52063e-17
9225.00590 8.58863e-17
9225.87737 8.63127e-17
9226.73884 8.67383e-17
9227.60030 8.68397e-17
9228.46176 8.69402e-17
9229.32322 8.66893e-17
9230.18468 8.64377e-17
9231.04615 8.61206e-17
9231.90761 8.58033e-17
9232.76907 8.57502e-17
9233.63053 8.56978e-17
9234.49199 8.58361e-17
9235.35346 8.59748e-17
9236.22494 8.61186e-17
9237.08640 8.62624e-17
9237.94786 8.64964e-17
9238.80932 8.67307e-17
9239.67078 8.72295e-17
9240.53225 8.77291e-17
9241.39371 8.85765e-17
9242.25517 8.94249e-17
9243.11663 9.06549e-17
9243.97809 9.18861e-17
9244.84957 9.33917e-17
9245.71103 9.48979e-17
9246.57250 9.64347e-17
9247.43396 9.79714e-17
9248.29542 9.93996e-17
9249.15688 1.00827e-16
9250.01834 1.02176e-16
9250.87981 1.03524e-16
9251.74127 1.04725e-16
9252.60273 1.05925e-16
9253.46419 1.06690e-16
9254.32565 1.07454e-16
9255.19713 1.07736e-16
9256.05860 1.08017e-16
9256.92006 1.08376e-16
9257.78152 1.08735e-16
9258.64298 1.09592e-16
9259.50444 1.10450e-16
9260.36591 1.11677e-16
9261.22737 1.12905e-16
9262.08883 1.14276e-16
9262.95029 1.15648e-16
9263.81175 1.16668e-16
9264.68323 1.17688e-16
9265.54469 1.17883e-16
9266.40616 1.18077e-16
9267.26762 1.17461e-16
9268.12908 1.16843e-16
9268.99054 1.15611e-16
9269.85200 1.14378e-16
9270.71347 1.12988e-16
9271.57493 1.11598e-16
9272.43639 1.10598e-16
9273.29785 1.09599e-16
9274.16933 1.09419e-16
9275.03079 1.09241e-16
9275.89226 1.10198e-16
9276.75372 1.11158e-16
9277.61518 1.13090e-16
9278.47664 1.15025e-16
9279.33810 1.17400e-16
9280.19957 1.19777e-16
9281.06103 1.22021e-16
9281.92249 1.24266e-16
9282.79397 1.25825e-16
9283.65543 1.27383e-16
9284.51689 1.27818e-16
9285.37835 1.28248e-16
9286.23982 1.27295e-16
9287.10128 1.26339e-16
9287.96274 1.24114e-16
9288.82420 1.21885e-16
9289.68566 1.19093e-16
9290.54713 1.16300e-16
9291.40859 1.13762e-16
9292.27005 1.11225e-16
9293.14153 1.10021e-16
9294.00299 1.08820e-16
9294.86445 1.09654e-16
9295.72592 1.10494e-16
9296.58738 1.12640e-16
9297.44884 1.14790e-16
9298.31030 1.17285e-16
9299.17176 1.19780e-16
9300.03323 1.21309e-16
9300.89469 1.22835e-16
9301.75615 1.22138e-16
9302.62763 1.21434e-16
9303.48909 1.19721e-16
9304.35055 1.18006e-16
9305.21201 1.17257e-16
9306.07348 1.16510e-16
9306.93494 1.16264e-16
9307.79640 1.16018e-16
9308.65786 1.14838e-16
9309.51932 1.13655e-16
9310.38079 1.11607e-16
9311.24225 1.09558e-16
9312.11373 1.07491e-16
9312.97519 1.05424e-16
9313.83665 1.04168e-16
9314.69811 1.02915e-16
9315.55958 1.03415e-16
9316.42104 1.03921e-16
9317.28250 1.05993e-16
9318.14396 1.08070e-16
9319.00542 1.09898e-16
9319.86688 1.11726e-16
9320.72835 1.12596e-16
9321.58981 1.13464e-16
9322.46129 1.15051e-16
9323.32275 1.16640e-16
9324.18421 1.19310e-16
9325.04567 1.21983e-16
9325.90714 1.22312e-16
9326.76860 1.22635e-16
9327.63006 1.18512e-16
9328.49152 1.14377e-16
9329.35298 1.09118e-16
9330.21445 1.03854e-16
9331.07591 1.00665e-16
9331.94739 9.74825e-17
9332.80885 9.57456e-17
9333.67031 9.40131e-17
9334.53177 9.28016e-17
9335.39323 9.15917e-17
9336.25470 9.09265e-17
9337.11616 9.02630e-17
9337.97762 8.99852e-17
9338.83908 8.97086e-17
9339.70055 9.26436e-17
9340.56201 9.55875e-17
9341.43349 1.05562e-16
9342.29495 1.15556e-16
9343.15641 1.27668e-16
9344.01787 1.39784e-16
9344.87933 1.45017e-16
9345.74080 1.50228e-16
9346.60226 1.45890e-16
9347.46372 1.41524e-16
9348.32518 1.29151e-16
9349.18664 1.16757e-16
9350.04811 1.02040e-16
9350.90957 8.73161e-17
9351.78105 8.07474e-17
9352.64251 7.42022e-17
9353.50397 7.92248e-17
9354.36543 8.42802e-17
9355.22689 9.33031e-17
9356.08836 1.02337e-16
9356.94982 1.08978e-16
9357.81128 1.15612e-16
9358.67274 1.16063e-16
9359.53420 1.16498e-16
9360.39567 1.09114e-16
9361.26715 1.01709e-16
9362.12861 9.24706e-17
9362.99007 8.32275e-17
9363.85153 7.77787e-17
9364.71299 7.23410e-17
9365.57446 7.10068e-17
9366.43592 6.96844e-17
9367.29738 7.19208e-17
9368.15884 7.41672e-17
9369.02030 7.71703e-17
9369.89178 8.01753e-17
9370.75324 8.07335e-17
9371.61471 8.12846e-17
9372.47617 7.95949e-17
9373.33763 7.78988e-17
9374.19909 7.51612e-17
9375.06056 7.24206e-17
9375.92202 7.04698e-17
9376.78348 6.85212e-17
9377.64494 6.95987e-17
9378.50640 7.06847e-17
9379.37788 7.39403e-17
9380.23934 7.72022e-17
9381.10081 7.97502e-17
9381.96227 8.22961e-17
9382.82373 8.32171e-17
9383.68519 8.41333e-17
9384.54665 8.42570e-17
9385.40812 8.43784e-17
9386.26958 8.39344e-17
9387.13104 8.34888e-17
9387.99250 8.20885e-17
9388.85396 8.06854e-17
9389.72544 7.83068e-17
9390.58691 7.59253e-17
9391.44837 7.29274e-17
9392.30983 6.99277e-17
9393.17129 6.68021e-17
9394.03275 6.36762e-17
9394.89422 6.12959e-17
9395.75568 5.89178e-17
9396.61714 5.78736e-17
9397.47860 5.68333e-17
9398.34006 5.66872e-17
9399.21154 5.65438e-17
9400.07300 5.67456e-17
9400.93447 5.69483e-17
9401.79593 5.69688e-17
9402.65739 5.69886e-17
9403.51885 5.63648e-17
9404.38031 5.57391e-17
9405.24178 5.49912e-17
9406.10324 5.42430e-17
9406.96470 5.41018e-17
9407.82616 5.39623e-17
9408.69764 5.44356e-17
9409.55910 5.49108e-17
9410.42057 5.57447e-17
9411.28203 5.65795e-17
9412.14349 5.73794e-17
9413.00495 5.81792e-17
9413.86641 5.84771e-17
9414.72788 5.87734e-17
9415.58934 5.82574e-17
9416.45080 5.77389e-17
9417.31226 5.63125e-17
9418.17372 5.48835e-17
9419.04520 5.26466e-17
9419.90666 5.04073e-17
9420.76813 4.75093e-17
9421.62959 4.46093e-17
9422.49105 4.20873e-17
9423.35251 3.95664e-17
9424.21397 3.98958e-17
9425.07544 4.02336e-17
9425.93690 4.42092e-17
9426.79836 4.81953e-17
9427.65982 5.32219e-17
9428.53130 5.82513e-17
9429.39276 6.18268e-17
9430.25423 6.53980e-17
9431.11569 6.52060e-17
9431.97715 6.50033e-17
9432.83861 5.98707e-17
9433.70007 5.47239e-17
9434.56153 4.87203e-17
9435.42300 4.27145e-17
9436.28446 4.00970e-17
9437.14592 3.74895e-17
9438.01740 3.89287e-17
9438.87886 4.03797e-17
9439.74032 4.56000e-17
9440.60179 5.08312e-17
9441.46325 5.71813e-17
9442.32471 6.35345e-17
9443.18617 6.76020e-17
9444.04763 7.16627e-17
9444.90910 7.24714e-17
9445.77056 7.32706e-17
9446.63202 7.10336e-17
9447.49348 6.87877e-17
9448.36496 6.47126e-17
9449.22642 6.06324e-17
9450.08788 5.66621e-17
9450.94935 5.26921e-17
9451.81081 5.00926e-17
9452.67227 4.74971e-17
9453.53373 4.67617e-17
9454.39520 4.60318e-17
9455.25666 4.72838e-17
9456.11812 4.85417e-17
9456.98960 5.14773e-17
9457.85106 5.44177e-17
9458.71252 5.81581e-17
9459.57398 6.19006e-17
9460.43545 6.46720e-17
9461.29691 6.74404e-17
9462.15837 6.81741e-17
9463.01983 6.89019e-17
9463.88129 6.84328e-17
9464.74276 6.79603e-17
9465.60422 6.71614e-17
9466.47570 6.63616e-17
9467.33716 6.57692e-17
9468.19862 6.51774e-17
9469.06008 6.52222e-17
9469.92155 6.52688e-17
9470.78301 6.52903e-17
9471.64447 6.53116e-17
9472.50593 6.46060e-17
9473.36739 6.38984e-17
9474.22885 6.29064e-17
9475.09032 6.19135e-17
9475.96180 6.12342e-17
9476.82326 6.05558e-17
9477.68472 6.14316e-17
9478.54618 6.23119e-17
9479.40764 6.61435e-17
9480.26911 6.99835e-17
9481.13057 7.52498e-17
9481.99203 8.05201e-17
9482.85349 8.42785e-17
9483.71495 8.80323e-17
9484.57642 8.87319e-17
9485.43788 8.94225e-17
9486.30936 8.65204e-17
9487.17082 8.36076e-17
9488.03228 7.82853e-17
9488.89374 7.29562e-17
9489.75520 6.83263e-17
9490.61667 6.36986e-17
9491.47813 6.17512e-17
9492.33959 5.98119e-17
9493.20105 6.05106e-17
9494.06252 6.12172e-17
9494.92398 6.45523e-17
9495.79546 6.78949e-17
9496.65692 7.42909e-17
9497.51838 8.06958e-17
9498.37984 8.94786e-17
9499.24130 9.82682e-17
9500.10277 1.06001e-16
9500.96423 1.13731e-16
9501.82569 1.17441e-16
9502.68715 1.21139e-16
9503.54861 1.20357e-16
9504.41008 1.19561e-16
9505.28155 1.14589e-16
9506.14302 1.09605e-16
9507.00448 1.03027e-16
9507.86594 9.64440e-17
9508.72740 9.13305e-17
9509.58887 8.62215e-17
9510.45033 8.28740e-17
9511.31179 7.95317e-17
9512.17325 7.73432e-17
9513.03471 7.51581e-17
9513.89617 7.47262e-17
9514.75764 7.42994e-17
9515.62912 7.64795e-17
9516.49058 7.86671e-17
9517.35204 8.32096e-17
9518.21350 8.77590e-17
9519.07496 9.38252e-17
9519.93643 9.98959e-17
9520.79789 1.06009e-16
9521.65935 1.12123e-16
9522.52081 1.16249e-16
9523.38227 1.20370e-16
9524.24374 1.21824e-16
9525.11522 1.23270e-16
9525.97668 1.23122e-16
9526.83814 1.22968e-16
9527.69960 1.22201e-16
9528.56106 1.21433e-16
9529.42252 1.20827e-16
9530.28399 1.20222e-16
9531.14545 1.20214e-16
9532.00691 1.20207e-16
9532.86837 1.20105e-16
9533.72984 1.20002e-16
9534.60131 1.19221e-16
9535.46278 1.18439e-16
9536.32424 1.16804e-16
9537.18570 1.15166e-16
9538.04716 1.12770e-16
9538.90862 1.10371e-16
9539.77009 1.09401e-16
9540.63155 1.08435e-16
9541.49301 1.10954e-16
9542.35447 1.13484e-16
9543.21593 1.18015e-16
9544.08741 1.22551e-16
9544.94888 1.26892e-16
9545.81034 1.31232e-16
9546.67180 1.33236e-16
9547.53326 1.35232e-16
9548.39472 1.32696e-16
9549.25619 1.30148e-16
9550.11765 1.25627e-16
9550.97911 1.21100e-16
9551.84057 1.19736e-16
9552.70203 1.18381e-16
9553.57351 1.20524e-16
9554.43497 1.22677e-16
9555.29644 1.25287e-16
9556.15790 1.27897e-16
9557.01936 1.28926e-16
9557.88082 1.29949e-16
9558.74228 1.28032e-16
9559.60375 1.26108e-16
9560.46521 1.22092e-16
9561.32667 1.18070e-16
9562.18813 1.16598e-16
9563.05961 1.15133e-16
9563.92107 1.18600e-16
9564.78254 1.22081e-16
9565.64400 1.28020e-16
9566.50546 1.33967e-16
9567.36692 1.39726e-16
9568.22838 1.45484e-16
9569.08985 1.47898e-16
9569.95131 1.50302e-16
9570.81277 1.47190e-16
9571.67423 1.44062e-16
9572.53569 1.38168e-16
9573.40717 1.32266e-16
9574.26863 1.26846e-16
9575.13010 1.21429e-16
9575.99156 1.18663e-16
9576.85302 1.15906e-16
9577.71448 1.17514e-16
9578.57594 1.19135e-16
9579.43741 1.22413e-16
9580.29887 1.25695e-16
9581.16033 1.26694e-16
9582.02179 1.27686e-16
9582.89327 1.25883e-16
9583.75473 1.24073e-16
9584.61620 1.20244e-16
9585.47766 1.16408e-16
9586.33912 1.13313e-16
9587.20058 1.10221e-16
9588.06204 1.12066e-16
9588.92351 1.13925e-16
9589.78497 1.20184e-16
9590.64643 1.26455e-16
9591.51791 1.32303e-16
9592.37937 1.38150e-16
9593.24083 1.40987e-16
9594.10229 1.43816e-16
9594.96376 1.43890e-16
9595.82522 1.43957e-16
9596.68668 1.41793e-16
9597.54814 1.39623e-16
9598.40960 1.36441e-16
9599.27107 1.33257e-16
9600.13253 1.30403e-16
9600.99399 1.27550e-16
9601.86547 1.26089e-16
9602.72693 1.24633e-16
9603.58839 1.25261e-16
9604.44986 1.25896e-16
9605.31132 1.28496e-16
9606.17278 1.31103e-16
9607.03424 1.35091e-16
9607.89570 1.39081e-16
9608.75717 1.41920e-16
9609.61863 1.44755e-16
9610.48009 1.44000e-16
9611.35157 1.43235e-16
9612.21303 1.39923e-16
9613.07449 1.36606e-16
9613.93595 1.32692e-16
9614.79742 1.28777e-16
9615.65888 1.25620e-16
9616.52034 1.22466e-16
9617.38180 1.21199e-16
9618.24326 1.19938e-16
9619.10473 1.20852e-16
9619.96619 1.21773e-16
9620.82765 1.24553e-16
9621.69913 1.27340e-16
9622.56059 1.30984e-16
9623.42205 1.34630e-16
9624.28352 1.37742e-16
9625.14498 1.40853e-16
9626.00644 1.42102e-16
9626.86790 1.43345e-16
9627.72936 1.41485e-16
9628.59083 1.39617e-16
9629.45229 1.35014e-16
9630.31375 1.30403e-16
9631.17521 1.25782e-16
9632.04669 1.21159e-16
9632.90815 1.18633e-16
9633.76961 1.16113e-16
9634.63108 1.16505e-16
9635.49254 1.16906e-16
9636.35400 1.20129e-16
9637.21546 1.23361e-16
9638.07692 1.26359e-16
9638.93839 1.29355e-16
9639.79985 1.29598e-16
9640.67133 1.29833e-16
9641.53279 1.28900e-16
9642.39425 1.27963e-16
9643.25571 1.27697e-16
9644.11718 1.27434e-16
9644.97864 1.28282e-16
9645.84010 1.29134e-16
9646.70156 1.31276e-16
9647.56302 1.33421e-16
9648.42448 1.35426e-16
9649.28595 1.37430e-16
9650.15743 1.37435e-16
9651.01889 1.37432e-16
9651.88035 1.35430e-16
9652.74181 1.33421e-16
9653.60327 1.30247e-16
9654.46474 1.27068e-16
9655.32620 1.23870e-16
9656.18766 1.20672e-16
9657.04912 1.18775e-16
9657.91058 1.16882e-16
9658.77205 1.17026e-16
9659.64352 1.17177e-16
9660.50499 1.19543e-16
9661.36645 1.21916e-16
9662.22791 1.25756e-16
9663.08937 1.29599e-16
9663.95083 1.32956e-16
9664.81230 1.36310e-16
9665.67376 1.38051e-16
9666.53522 1.39788e-16
9667.39668 1.40513e-16
9668.25815 1.41235e-16
9669.11961 1.41287e-16
9669.99109 1.41337e-16
9670.85255 1.40137e-16
9671.71401 1.38932e-16
9672.57547 1.36322e-16
9673.43693 1.33706e-16
9674.29840 1.30752e-16
9675.15986 1.27795e-16
9676.02132 1.25562e-16
9676.88278 1.23331e-16
9677.74424 1.22563e-16
9678.61572 1.21798e-16
9679.47718 1.22986e-16
9680.33865 1.24180e-16
9681.20011 1.26346e-16
9682.06157 1.28514e-16
9682.92303 1.30294e-16
9683.78449 1.32073e-16
9684.64596 1.33065e-16
9685.50742 1.34052e-16
9686.36888 1.34199e-16
9687.23034 1.34343e-16
9688.10182 1.33786e-16
9688.96328 1.33227e-16
9689.82475 1.32312e-16
9690.68621 1.31395e-16
9691.54767 1.30183e-16
9692.40913 1.28969e-16
9693.27059 1.27278e-16
9694.13206 1.25584e-16
9694.99352 1.23663e-16
9695.85498 1.21742e-16
9696.71644 1.20273e-16
9697.57790 1.18806e-16
9698.44938 1.18130e-16
9699.31084 1.17456e-16
9700.17231 1.17443e-16
9701.03377 1.17432e-16
9701.89523 1.17802e-16
9702.75669 1.18174e-16
9703.61816 1.18308e-16
9704.47962 1.18442e-16
9705.34108 1.17938e-16
9706.20254 1.17433e-16
9707.06400 1.16679e-16
9707.93548 1.15924e-16
9708.79694 1.15320e-16
9709.65841 1.14716e-16
9710.51987 1.14480e-16
9711.38133 1.14245e-16
9712.24279 1.14521e-16
9713.10425 1.14797e-16
9713.96572 1.15203e-16
9714.82718 1.15609e-16
9715.68864 1.15687e-16
9716.55010 1.15764e-16
9717.41156 1.15384e-16
9718.28304 1.15002e-16
9719.14451 1.14110e-16
9720.00597 1.13217e-16
9720.86743 1.12291e-16
9721.72889 1.11365e-16
9722.59035 1.11138e-16
9723.45182 1.10913e-16
9724.31328 1.11064e-16
9725.17474 1.11216e-16
9726.03620 1.10786e-16
9726.89766 1.10355e-16
9727.76914 1.09007e-16
9728.63060 1.07655e-16
9729.49207 1.05566e-16
9730.35353 1.03474e-16
9731.21499 1.01089e-16
9732.07645 9.87031e-17
9732.93791 9.68428e-17
9733.79938 9.49842e-17
9734.66084 9.41593e-17
9735.52230 9.33376e-17
9736.38376 9.34489e-17
9737.25524 9.35629e-17
9738.11670 9.43804e-17
9738.97817 9.52001e-17
9739.83963 9.62713e-17
9740.70109 9.73434e-17
9741.56255 9.82211e-17
9742.42401 9.90983e-17
9743.28548 9.95453e-17
9744.14694 9.99911e-17
9745.00840 9.98669e-17
9745.86986 9.97411e-17
9746.74134 9.92364e-17
9747.60280 9.87306e-17
9748.46426 9.81071e-17
9749.32573 9.74831e-17
9750.18719 9.68028e-17
9751.04865 9.61223e-17
9751.91011 9.54180e-17
9752.77157 9.47137e-17
9753.63304 9.39623e-17
9754.49450 9.32108e-17
9755.35596 9.23636e-17
9756.22744 9.15161e-17
9757.08890 9.07495e-17
9757.95036 8.99830e-17
9758.81183 8.95573e-17
9759.67329 8.91326e-17
9760.53475 8.92493e-17
9761.39621 8.93677e-17
9762.25767 9.01997e-17
9763.11913 9.10340e-17
9763.98060 9.23194e-17
9764.84206 9.36060e-17
9765.71354 9.46070e-17
9766.57500 9.56071e-17
9767.43646 9.59620e-17
9768.29792 9.63148e-17
9769.15939 9.62607e-17
9770.02085 9.62053e-17
9770.88231 9.59442e-17
9771.74377 9.56826e-17
9772.60523 9.53156e-17
9773.46670 9.49483e-17
9774.32816 9.46035e-17
9775.19964 9.42586e-17
9776.06110 9.40373e-17
9776.92256 9.38162e-17
9777.78402 9.37858e-17
9778.64548 9.37560e-17
9779.50695 9.40029e-17
9780.36841 9.42507e-17
9781.22987 9.47987e-17
9782.09133 9.53477e-17
9782.95280 9.57225e-17
9783.81426 9.60967e-17
9784.68574 9.57826e-17
9785.54720 9.54662e-17
9786.40866 9.47129e-17
9787.27012 9.39585e-17
9788.13158 9.32360e-17
9788.99305 9.25136e-17
9789.85451 9.19875e-17
9790.71597 9.14618e-17
9791.57743 9.12007e-17
9792.43889 9.09403e-17
9793.30036 9.07681e-17
9794.16182 9.05961e-17
9795.03330 9.01424e-17
9795.89476 8.96878e-17
9796.75622 8.90606e-17
9797.61768 8.84330e-17
9798.47915 8.81736e-17
9799.34061 8.79153e-17
9800.20207 8.82044e-17
9801.06353 8.84952e-17
9801.92499 8.90764e-17
9802.78645 8.96584e-17
9803.64792 9.02727e-17
9804.51940 9.08869e-17
9805.38086 9.12306e-17
9806.24232 9.15734e-17
9807.10378 9.14992e-17
9807.96524 9.14236e-17
9808.82671 9.12228e-17
9809.68817 9.10216e-17
9810.54963 9.09717e-17
9811.41109 9.09222e-17
9812.27255 9.11985e-17
9813.13402 9.14758e-17
9813.99548 9.21597e-17
9814.86696 9.28449e-17
9815.72842 9.34498e-17
9816.58988 9.40544e-17
9817.45134 9.40632e-17
9818.31280 9.40703e-17
9819.17427 9.35518e-17
9820.03573 9.30318e-17
9820.89719 9.22036e-17
9821.75865 9.13744e-17
9822.62012 9.05557e-17
9823.48158 8.97370e-17
9824.35306 8.92997e-17
9825.21452 8.88636e-17
9826.07598 8.87534e-17
9826.93744 8.86443e-17
9827.79890 8.85603e-17
9828.66037 8.84765e-17
9829.52183 8.83442e-17
9830.38329 8.82118e-17
9831.24475 8.81205e-17
9832.10621 8.80293e-17
9832.97769 8.79583e-17
9833.83915 8.78874e-17
9834.70062 8.77198e-17
9835.56208 8.75519e-17
9836.42354 8.72338e-17
9837.28500 8.69151e-17
9838.14647 8.64780e-17
9839.00793 8.60406e-17
9839.86939 8.55201e-17
9840.73085 8.49994e-17
9841.59231 8.44140e-17
9842.45377 8.38284e-17
9843.32525 8.32449e-17
9844.18672 8.26612e-17
9845.04818 8.22864e-17
9845.90964 8.19121e-17
9846.77110 8.19087e-17
9847.63256 8.19064e-17
9848.49403 8.22241e-17
9849.35549 8.25427e-17
9850.21695 8.30890e-17
9851.07841 8.36360e-17
9851.93987 8.43224e-17
9852.81135 8.50093e-17
9853.67282 8.57314e-17
9854.53428 8.64535e-17
9855.39574 8.71453e-17
9856.25720 8.78369e-17
9857.11866 8.84497e-17
9857.98013 8.90622e-17
9858.84159 8.94650e-17
9859.70305 8.98669e-17
9860.56451 8.99094e-17
9861.42597 8.99508e-17
9862.29745 8.96127e-17
9863.15891 8.92735e-17
9864.02038 8.86193e-17
9864.88184 8.79641e-17
9865.74330 8.71130e-17
9866.60476 8.62613e-17
9867.46622 8.53842e-17
9868.32769 8.45072e-17
9869.18915 8.37019e-17
9870.05061 8.28970e-17
9870.92209 8.21523e-17
9871.78355 8.14078e-17
9872.64501 8.07365e-17
9873.50648 8.00654e-17
9874.36794 7.95249e-17
9875.22940 7.89848e-17
9876.09086 7.86207e-17
9876.95232 7.82572e-17
9877.81379 7.81112e-17
9878.67525 7.79661e-17
9879.53671 7.80575e-17
9880.39817 7.81497e-17
9881.26965 7.84495e-17
9882.13111 7.87498e-17
9882.99257 7.92041e-17
9883.85404 7.96587e-17
9884.71550 8.01691e-17
9885.57696 8.06797e-17
9886.43842 8.11400e-17
9887.29988 8.16002e-17
9888.16135 8.19107e-17
9889.02281 8.22209e-17
9889.88427 8.22984e-17
9890.74573 8.23751e-17
9891.61721 8.22174e-17
9892.47867 8.20591e-17
9893.34014 8.17083e-17
9894.20160 8.13570e-17
9895.06306 8.08583e-17
9895.92452 8.03591e-17
9896.78598 7.97599e-17
9897.64745 7.91605e-17
9898.50891 7.85388e-17
9899.37037 7.79170e-17
9900.23183 7.73756e-17
9901.09329 7.68345e-17
9901.96477 7.63906e-17
9902.82623 7.59469e-17
9903.68770 7.55129e-17
9904.54916 7.50791e-17
9905.41062 7.46751e-17
9906.27208 7.42712e-17
9907.13354 7.40878e-17
9907.99501 7.39050e-17
9908.85647 7.40325e-17
9909.71793 7.41610e-17
9910.57939 7.45129e-17
9911.45087 7.48654e-17
9912.31233 7.53000e-17
9913.17380 7.57349e-17
9914.03526 7.59534e-17
9914.89672 7.61713e-17
9915.75818 7.59361e-17
9916.61964 7.56998e-17
9917.48111 7.50942e-17
9918.34257 7.44875e-17
9919.20403 7.36564e-17
9920.07551 7.28248e-17
9920.93697 7.19332e-17
9921.79843 7.10415e-17
9922.65989 7.02570e-17
9923.52136 6.94730e-17
9924.38282 6.88693e-17
9925.24428 6.82661e-17
9926.10574 6.78718e-17
9926.96720 6.74783e-17
9927.82867 6.71844e-17
9928.69013 6.68907e-17
9929.56161 6.65235e-17
9930.42307 6.61562e-17
9931.28453 6.56593e-17
9932.14599 6.51620e-17
9933.00746 6.45601e-17
9933.86892 6.39579e-17
9934.73038 6.33020e-17
9935.59184 6.26460e-17
9936.45330 6.20101e-17
9937.31477 6.13741e-17
9938.17623 6.08554e-17
9939.03769 6.03372e-17
9939.90917 6.00584e-17
9940.77063 5.97804e-17
9941.63209 5.97750e-17
9942.49355 5.97706e-17
9943.35502 5.99119e-17
9944.21648 6.00536e-17
9945.07794 6.02321e-17
9945.93940 6.04106e-17
9946.80086 6.05986e-17
9947.66233 6.07867e-17
9948.52379 6.09523e-17
9949.39527 6.11180e-17
9950.25673 6.12006e-17
9951.11819 6.12830e-17
9951.97965 6.12434e-17
9952.84112 6.12036e-17
9953.70258 6.11205e-17
9954.56404 6.10372e-17
9955.42550 6.09969e-17
9956.28696 6.09567e-17
9957.14843 6.09015e-17
9958.00989 6.08461e-17
9958.88137 6.06963e-17
9959.74283 6.05459e-17
9960.60429 6.02606e-17
9961.46575 5.99749e-17
9962.32721 5.95279e-17
9963.18868 5.90803e-17
9964.05014 5.86054e-17
9964.91160 5.81304e-17
9965.77306 5.78512e-17
9966.63452 5.75725e-17
9967.49599 5.75412e-17
9968.36747 5.75107e-17
9969.22893 5.76414e-17
9970.09039 5.77724e-17
9970.95185 5.80514e-17
9971.81331 5.83309e-17
9972.67477 5.88225e-17
9973.53624 5.93147e-17
9974.39770 5.99921e-17
9975.25916 6.06701e-17
9976.12062 6.13883e-17
9976.98208 6.21066e-17
9977.85356 6.27503e-17
9978.71503 6.33937e-17
9979.57649 6.39076e-17
9980.43795 6.44211e-17
9981.29941 6.47859e-17
9982.16087 6.51503e-17
9983.02234 6.54435e-17
9983.88380 6.57366e-17
9984.74526 6.60364e-17
9985.60672 6.63364e-17
9986.46818 6.66820e-17
9987.32965 6.70275e-17
9988.20112 6.74388e-17
9989.06259 6.78502e-17
9989.92405 6.81824e-17
9990.78551 6.85143e-17
9991.64697 6.86030e-17
9992.50843 6.86910e-17
9993.36990 6.86596e-17
9994.23136 6.86278e-17
9995.09282 6.86870e-17
9995.95428 6.87465e-17
9996.81574 6.88604e-17
9997.67721 6.89746e-17
9998.54869 6.90090e-17
9999.41015 6.90430e-17
