# wavelength flux
3890.00096 -1.03488e-17
3891.00086 2.33829e-19
3892.00076 4.74607e-18
3893.00066 4.74576e-18
3894.00056 -1.03461e-17
3895.00046 -1.03455e-17
3896.00036 -1.03448e-17
3897.00026 2.15463e-19
3898.00016 2.15449e-19
3899.00006 2.15435e-19
3899.99996 4.16508e-18
3900.99986 4.16481e-18
3901.99976 4.74303e-18
3902.99966 4.74272e-18
3903.99956 4.16402e-18
3904.99946 4.16375e-18
3905.99936 2.15339e-19
3906.99926 -1.93847e-18
3907.99916 -8.20331e-18
3908.99906 -8.20279e-18
3909.99896 -8.20227e-18
3910.99886 -8.20175e-18
3911.99876 -2.55212e-18
3912.99866 -1.93774e-18
3913.99856 4.16138e-18
3914.99846 7.03135e-19
3915.99836 -1.93737e-18
3916.99826 -1.93725e-18
3917.99816 7.03003e-19
3918.99806 7.02959e-19
3919.99796 7.02915e-19
3920.99786 5.56351e-18
3921.99776 5.56316e-18
3922.99766 7.72325e-18
3923.99756 7.72277e-18
3924.99746 7.72229e-18
3925.99736 8.22879e-18
3926.99726 8.35257e-18
3927.99716 8.28266e-18
3928.99706 8.28215e-18
3929.99696 8.28164e-18
3930.99686 7.71941e-18
3931.99676 9.37547e-18
3932.99666 1.10419e-17
3933.99656 9.37431e-18
3934.99646 9.37373e-18
3935.99636 1.10399e-17
3936.99626 9.37258e-18
3937.99616 9.37200e-18
3938.99606 9.37142e-18
3939.99596 7.28982e-18
3940.99586 5.37148e-18
3941.99576 3.66241e-18
3942.99566 3.66219e-18
3943.99556 5.37049e-18
3944.99546 5.37016e-18
3945.99536 5.36983e-18
3946.99526 5.36950e-18
3948.00516 1.20248e-17
3949.00506 1.20241e-17
3950.00496 3.82699e-18
3951.00486 2.57543e-18
3952.00476 2.57528e-18
3953.00466 3.84683e-18
3954.00456 3.84660e-18
3955.00446 5.44403e-18
3956.00436 3.84613e-18
3957.00426 8.11312e-18
3958.00416 8.11263e-18
3959.00406 8.11214e-18
3960.00396 3.84520e-18
3961.00386 3.82444e-18
3962.00376 3.82421e-18
3963.00366 3.82398e-18
3964.00356 3.82375e-18
3965.00346 5.16556e-19
3966.00336 1.84412e-18
3967.00326 1.84401e-18
3968.00316 1.26046e-18
3969.00306 5.16432e-19
3970.00296 -2.37591e-18
3971.00286 -2.44309e-18
3972.00276 -2.44294e-18
3973.00266 -2.37548e-18
3974.00256 -2.37534e-18
3975.00246 5.16246e-19
3976.00236 1.49648e-18
3977.00226 1.49639e-18
3978.00216 1.49630e-18
3979.00206 1.33903e-18
3980.00196 1.33895e-18
3981.00186 1.49603e-18
3982.00176 1.33879e-18
3983.00166 1.25933e-18
3984.00156 -4.64088e-19
3985.00146 1.49568e-18
3986.00136 3.01330e-18
3987.00126 3.01312e-18
3988.00116 1.33831e-18
3989.00106 1.33823e-18
3990.00096 1.33815e-18
3991.00086 5.10662e-19
3992.00076 5.10632e-19
3993.00066 -4.63840e-19
3994.00056 3.82700e-19
3995.00046 5.10542e-19
3996.00036 1.53544e-19
3997.00026 -7.90607e-19
3998.00016 -7.90560e-19
3999.00006 -7.90513e-19
3999.99996 -7.90467e-19
4000.99986 1.53498e-19
4001.99976 -1.76322e-18
4002.99966 -9.72954e-19
4003.99956 -9.72897e-19
4004.99946 1.53462e-19
4005.99936 1.53453e-19
4006.99926 3.82406e-19
4007.99916 3.82384e-19
4008.99906 3.82362e-19
4009.99896 3.17877e-18
4010.99886 3.17858e-18
4011.99876 3.17840e-18
4012.99866 3.17821e-18
4013.99856 3.99209e-18
4014.99846 3.99186e-18
4015.99836 3.99162e-18
4016.99826 3.17747e-18
4017.99816 2.70957e-18
4018.99806 5.37298e-18
4019.99796 5.37266e-18
4020.99786 5.37235e-18
4021.99776 8.35060e-18
4022.99766 8.35011e-18
4023.99756 8.34962e-18
4024.99746 8.34914e-18
4025.99736 5.37078e-18
4026.99726 -9.48618e-19
4027.99716 -9.48563e-19
4028.99706 -4.76301e-18
4029.99696 -4.76273e-18
4030.99686 -4.76246e-18
4031.99676 8.34573e-18
4032.99666 8.72220e-18
4033.99656 1.95028e-17
4034.99646 1.95017e-17
4035.99636 1.95005e-17
4036.99626 1.68998e-17
4037.99616 1.68988e-17
4038.99606 6.62047e-18
4039.99596 6.62008e-18
4040.99586 5.05832e-18
4041.99576 -1.36841e-18
4042.99566 5.05774e-18
4043.99556 6.61855e-18
4044.99546 8.45393e-18
4045.99536 8.45344e-18
4046.99526 8.45295e-18
4048.00516 6.61702e-18
4049.00506 8.45197e-18
4050.00496 6.61625e-18
4051.00486 5.05539e-18
4052.00476 4.79127e-18
4053.00466 5.05481e-18
4054.00456 5.54233e-18
4055.00446 6.61434e-18
4056.00436 6.84871e-18
4057.00426 6.84832e-18
4058.00416 7.68135e-18
4059.00406 7.68090e-18
4060.00396 8.44660e-18
4061.00386 9.48717e-18
4062.00376 8.82254e-18
4063.00366 7.67913e-18
4064.00356 6.84555e-18
4065.00346 5.53881e-18
4066.00336 6.84476e-18
4067.00326 7.67736e-18
4068.00316 7.67692e-18
4069.00306 7.67648e-18
4070.00296 9.50835e-18
4071.00286 9.50780e-18
4072.00276 9.50726e-18
4073.00266 1.31084e-17
4074.00256 9.19925e-18
4075.00246 9.19871e-18
4076.00236 9.19819e-18
4077.00226 9.19766e-18
4078.00216 8.81441e-18
4079.00206 9.19660e-18
4080.00196 9.50288e-18
4081.00186 9.19554e-18
4082.00176 9.50179e-18
4083.00166 9.61660e-18
4084.00156 9.61605e-18
4085.00146 9.61550e-18
4086.00136 9.61495e-18
4087.00126 9.19237e-18
4088.00116 9.00165e-18
4089.00106 9.19131e-18
4090.00096 9.19078e-18
4091.00086 9.00010e-18
4092.00076 9.61163e-18
4093.00066 9.61775e-18
4094.00056 9.61052e-18
4095.00046 9.60997e-18
4096.00036 8.99751e-18
4097.00026 4.43992e-18
4098.00016 4.43966e-18
4099.00006 4.43941e-18
4099.99996 3.44265e-18
4100.99986 3.44245e-18
4101.99976 3.44226e-18
4102.99966 3.44206e-18
4103.99956 4.14198e-18
4104.99946 2.74362e-18
4105.99936 2.74347e-18
4106.99926 3.98631e-18
4107.99916 3.98608e-18
4108.99906 3.98585e-18
4109.99896 2.74284e-18
4110.99886 3.98539e-18
4111.99876 4.43609e-18
4112.99866 4.43584e-18
4113.99856 4.74912e-18
4114.99846 4.13937e-18
4115.99836 4.74857e-18
4116.99826 5.85593e-18
4117.99816 6.26436e-18
4118.99806 4.74775e-18
4119.99796 5.85492e-18
4120.99786 6.26328e-18
4121.99776 6.26291e-18
4122.99766 8.23478e-18
4123.99756 8.23431e-18
4124.99746 6.26183e-18
4125.99736 6.26147e-18
4126.99726 6.26111e-18
4127.99716 5.85223e-18
4128.99706 7.08362e-18
4129.99696 8.23147e-18
4130.99686 7.08280e-18
4131.99676 5.85088e-18
4132.99666 8.59035e-18
4133.99656 8.73136e-18
4134.99646 8.73086e-18
4135.99636 8.58887e-18
4136.99626 7.32669e-18
4137.99616 6.65203e-18
4138.99606 7.32585e-18
4139.99596 7.32543e-18
4140.99586 5.85803e-18
4141.99576 6.65050e-18
4142.99566 9.35759e-18
4143.99556 9.52710e-18
4144.99546 9.52655e-18
4145.99536 9.52600e-18
4147.00526 7.32247e-18
4148.00516 9.35489e-18
4149.00506 9.82511e-18
4150.00496 9.35381e-18
4151.00486 9.35327e-18
4152.00476 9.35273e-18
4153.00466 9.52215e-18
4154.00456 9.52160e-18
4155.00446 1.18236e-17
4156.00436 1.18229e-17
4157.00426 1.20112e-17
4158.00416 1.31219e-17
4159.00406 1.24514e-17
4160.00396 1.36957e-17
4161.00386 1.36949e-17
4162.00376 1.24492e-17
4163.00366 1.20070e-17
4164.00356 1.24478e-17
4165.00346 1.02402e-17
4166.00336 8.36099e-18
4167.00326 7.69285e-18
4168.00316 7.69240e-18
4169.00306 1.02378e-17
4170.00296 1.20021e-17
4171.00286 1.20015e-17
4172.00276 7.69062e-18
4173.00266 7.38725e-18
4174.00256 7.68972e-18
4175.00246 7.68928e-18
4176.00236 5.76965e-18
4177.00226 5.34281e-18
4178.00216 3.60165e-18
4179.00206 5.76864e-18
4180.00196 5.76830e-18
4181.00186 5.34157e-18
4182.00176 5.34126e-18
4183.00166 6.71749e-18
4184.00156 6.71710e-18
4185.00146 5.34032e-18
4186.00136 5.25547e-18
4187.00126 3.59976e-18
4188.00116 2.31408e-18
4189.00106 2.31395e-18
4190.00096 1.57535e-18
4191.00086 1.57526e-18
4192.00076 1.57517e-18
4193.00066 4.08707e-18
4194.00056 5.25302e-18
4195.00046 5.25271e-18
4196.00036 4.08635e-18
4197.00026 5.25210e-18
4198.00016 5.25179e-18
4199.00006 3.72638e-18
4199.99996 1.60917e-18
4200.99986 1.60907e-18
4201.99976 3.46955e-18
4202.99966 6.43257e-18
4203.99956 6.43219e-18
4204.99946 3.72507e-18
4205.99936 3.78525e-18
4206.99926 3.78503e-18
4207.99916 3.78481e-18
4208.99906 3.72419e-18
4209.99896 3.46792e-18
4210.99886 3.46771e-18
4211.99876 3.46751e-18
4212.99866 3.78369e-18
4213.99856 3.46710e-18
4214.99846 3.78325e-18
4215.99836 3.78302e-18
4216.99826 6.24307e-18
4217.99816 6.24270e-18
4218.99806 3.78236e-18
4219.99796 4.65521e-18
4220.99786 3.78191e-18
4221.99776 3.78169e-18
4222.99766 2.50641e-18
4223.99756 3.82045e-18
4224.99746 3.82022e-18
4225.99736 3.82000e-18
4226.99726 4.38601e-18
4227.99716 3.46727e-18
4228.99706 3.81932e-18
4229.99696 3.46686e-18
4230.99686 3.46665e-18
4231.99676 -1.94620e-19
4232.99666 -1.26051e-19
4233.99656 -1.94597e-19
4234.99646 -9.70188e-19
4235.99636 -1.26029e-19
4236.99626 -1.26021e-19
4237.99616 7.47382e-19
4238.99606 7.47338e-19
4239.99596 3.46480e-18
4240.99586 9.21079e-19
4241.99576 2.07553e-18
4242.99566 2.07541e-18
4243.99556 2.07528e-18
4244.99546 9.20860e-19
4245.99536 2.07504e-18
4246.99526 4.74803e-18
4247.99516 3.33447e-18
4248.99506 4.74746e-18
4250.00496 3.52995e-18
4251.00486 3.52974e-18
4252.00476 4.74661e-18
4253.00466 5.11891e-18
4254.00456 4.14613e-18
4255.00446 4.14588e-18
4256.00436 4.74547e-18
4257.00426 4.14538e-18
4258.00416 4.74490e-18
4259.00406 4.79376e-18
4260.00396 4.79347e-18
4261.00386 4.79318e-18
4262.00376 7.44553e-18
4263.00366 5.02350e-18
4264.00356 5.02320e-18
4265.00346 6.62273e-18
4266.00336 5.02260e-18
4267.00326 4.57165e-18
4268.00316 4.79117e-18
4269.00306 4.79088e-18
4270.00296 4.57082e-18
4271.00286 5.02109e-18
4272.00276 4.79001e-18
4273.00266 4.56999e-18
4274.00256 4.56972e-18
4275.00246 3.84936e-18
4276.00236 3.84913e-18
4277.00226 4.56889e-18
4278.00216 3.84867e-18
4279.00206 3.84843e-18
4280.00196 5.26095e-18
4281.00186 5.30326e-18
4282.00176 5.26031e-18
4283.00166 4.56723e-18
4284.00156 5.25968e-18
4285.00146 5.30197e-18
4286.00136 8.98245e-18
4287.00126 1.06139e-17
4288.00116 1.06132e-17
4289.00106 1.06126e-17
4290.00096 1.12993e-17
4291.00086 1.12986e-17
4292.00076 1.06209e-17
4293.00066 1.06100e-17
4294.00056 8.97808e-18
4295.00046 1.06087e-17
4296.00036 1.06183e-17
4297.00026 1.12945e-17
4298.00016 1.06170e-17
4299.00006 1.13224e-17
4299.99996 1.13217e-17
4300.99986 1.12917e-17
4301.99976 1.12910e-17
4302.99966 7.40032e-18
4303.99956 7.18304e-18
4304.99946 7.18260e-18
4305.99936 7.18216e-18
4306.99926 7.18172e-18
4307.99916 1.06105e-17
4308.99906 1.12046e-17
4309.99896 1.13148e-17
4310.99886 1.13595e-17
4311.99876 1.13134e-17
4312.99866 8.52840e-18
4313.99856 8.52787e-18
4314.99846 8.52735e-18
4315.99836 8.52682e-18
4316.99826 8.71910e-18
4317.99816 8.71857e-18
4318.99806 8.71803e-18
4319.99796 1.02498e-17
4320.99786 1.02492e-17
4321.99776 8.52366e-18
4322.99766 8.52314e-18
4323.99756 7.69452e-18
4324.99746 7.69404e-18
4325.99736 7.78534e-18
4326.99726 7.78485e-18
4327.99716 7.78437e-18
4328.99706 7.69214e-18
4329.99696 8.07387e-18
4330.99686 8.07337e-18
4331.99676 9.77413e-18
4332.99666 9.77353e-18
4333.99656 8.07187e-18
4334.99646 8.07137e-18
4335.99636 9.29821e-18
4336.99626 9.77109e-18
4337.99616 9.81257e-18
4338.99606 9.85689e-18
4339.99596 9.85627e-18
4340.99586 9.85566e-18
4341.99576 9.85504e-18
4342.99566 1.24744e-17
4343.99556 1.02405e-17
4344.99546 1.02399e-17
4345.99536 9.85258e-18
4347.00526 9.29182e-18
4348.00516 9.85135e-18
4349.00506 9.85073e-18
4350.00496 9.85011e-18
4351.00486 9.84949e-18
4352.00476 9.84887e-18
4353.00466 1.02348e-17
4354.00456 1.02341e-17
4355.00446 1.02335e-17
4356.00436 9.10978e-18
4357.00426 9.10921e-18
4358.00416 9.10864e-18
4359.00406 9.89655e-18
4360.00396 1.00909e-17
4361.00386 9.89530e-18
4362.00376 9.89468e-18
4363.00366 9.89405e-18
4364.00356 9.89343e-18
4365.00346 9.60072e-18
4366.00336 8.54708e-18
4367.00326 7.40011e-18
4368.00316 6.75789e-18
4369.00306 7.28216e-18
4370.00296 6.75704e-18
4371.00286 6.75661e-18
4372.00276 6.49855e-18
4373.00266 6.49814e-18
4374.00256 6.49772e-18
4375.00246 6.80602e-18
4376.00236 4.81985e-18
4377.00226 4.56313e-18
4378.00216 4.81923e-18
4379.00206 4.81893e-18
4380.00196 4.81862e-18
4381.00186 4.56197e-18
4382.00176 3.76373e-18
4383.00166 3.50082e-18
4384.00156 3.50060e-18
4385.00146 3.50037e-18
4386.00136 1.85493e-18
4387.00126 1.29108e-18
4388.00116 1.29100e-18
4389.00106 1.29092e-18
4390.00096 1.29084e-18
4391.00086 1.29075e-18
4392.00076 1.38979e-18
4393.00066 1.29059e-18
4394.00056 4.16110e-19
4395.00046 4.16084e-19
4396.00036 4.16057e-19
4397.00026 -4.73490e-20
4398.00016 2.66443e-18
4399.00006 1.38917e-18
4399.99996 3.37237e-19
4400.99986 2.72084e-18
4401.99976 3.36840e-18
4402.99966 2.72049e-18
4403.99956 2.72031e-18
4404.99946 3.36775e-18
4405.99936 3.36754e-18
4406.99926 3.57431e-18
4407.99916 4.27305e-18
4408.99906 3.57385e-18
4409.99896 4.43885e-18
4410.99886 4.43856e-18
4411.99876 4.71655e-18
4412.99866 4.43799e-18
4413.99856 4.71594e-18
4414.99846 5.50370e-18
4415.99836 4.71533e-18
4416.99826 4.71503e-18
4417.99816 4.71472e-18
4418.99806 5.50227e-18
4419.99796 4.71411e-18
4420.99786 4.71380e-18
4421.99776 4.71349e-18
4422.99766 4.71319e-18
4423.99756 4.55067e-18
4424.99746 4.55037e-18
4425.99736 4.26029e-18
4426.99726 4.06001e-18
4427.99716 4.54948e-18
4428.99706 3.48047e-18
4429.99696 3.48024e-18
4430.99686 3.89510e-18
4431.99676 3.47978e-18
4432.99666 3.00975e-18
4433.99656 3.47933e-18
4434.99646 3.47910e-18
4435.99636 3.42585e-18
4436.99626 3.42562e-18
4437.99616 3.42540e-18
4438.99606 3.42517e-18
4439.99596 3.89281e-18
4440.99586 4.02379e-18
4441.99576 4.02353e-18
4442.99566 4.47122e-18
4443.99556 5.75851e-18
4444.99546 5.75813e-18
4445.99536 5.75776e-18
4446.99526 4.02220e-18
4447.99516 4.02194e-18
4448.99506 4.02167e-18
4450.00495 4.02141e-18
4451.00486 2.94705e-18
4452.00475 2.94685e-18
4453.00465 4.02061e-18
4454.00455 5.75472e-18
4455.00446 5.75434e-18
4456.00436 5.28362e-18
4457.00425 5.10292e-18
4458.00415 5.10258e-18
4459.00405 3.60830e-18
4460.00396 2.94529e-18
4461.00385 2.94510e-18
4462.00375 2.51813e-18
4463.00365 2.94471e-18
4464.00356 2.94451e-18
4465.00346 3.60686e-18
4466.00335 5.09987e-18
4467.00325 5.27977e-18
4468.00315 5.09919e-18
4469.00306 5.09885e-18
4470.00295 3.87315e-18
4471.00285 3.87289e-18
4472.00275 3.87263e-18
4473.00266 3.87237e-18
4474.00256 3.87211e-18
4475.00245 6.54843e-18
4476.00235 7.31219e-18
4477.00225 7.31170e-18
4478.00216 7.31122e-18
4479.00205 7.13161e-18
4480.00195 7.13114e-18
4481.00185 6.68613e-18
4482.00176 6.68568e-18
4483.00166 5.23083e-18
4484.00155 5.23048e-18
4485.00145 6.54405e-18
4486.00135 6.54361e-18
4487.00126 6.55580e-18
4488.00115 6.55536e-18
4489.00105 6.54230e-18
4490.00095 6.54186e-18
4491.00086 5.22803e-18
4492.00076 4.68793e-18
4493.00065 4.68762e-18
4494.00055 4.68730e-18
4495.00045 3.71751e-18
4496.00036 3.71726e-18
4497.00025 4.52222e-18
4498.00015 4.52191e-18
4499.00005 4.68572e-18
4499.99996 4.85098e-18
4500.99986 4.68509e-18
4501.99975 4.85032e-18
4502.99965 4.84999e-18
4503.99955 5.02329e-18
4504.99946 5.02983e-18
4505.99935 5.02949e-18
4506.99925 5.02914e-18
4507.99915 5.02880e-18
4508.99906 5.69099e-18
4509.99896 6.41635e-18
4510.99885 6.77604e-18
4511.99875 7.17837e-18
4512.99865 7.46469e-18
4513.99856 7.46418e-18
4514.99845 7.46368e-18
4515.99835 7.46317e-18
4516.99825 7.17593e-18
4517.99816 6.77282e-18
4518.99806 6.63683e-18
4519.99795 6.41199e-18
4520.99785 6.41156e-18
4521.99775 6.63548e-18
4522.99766 6.77051e-18
4523.99755 6.77005e-18
4524.99745 6.63412e-18
4525.99735 6.77218e-18
4526.99726 6.77172e-18
4527.99716 6.77126e-18
4528.99705 6.17466e-18
4529.99695 5.98545e-18
4530.99685 5.98504e-18
4531.99676 5.88408e-18
4532.99665 6.17297e-18
4533.99655 6.17255e-18
4534.99645 6.76801e-18
4535.99636 6.85945e-18
4536.99626 7.42899e-18
4537.99615 7.98171e-18
4538.99605 8.40793e-18
4539.99596 8.40735e-18
4540.99586 8.99858e-18
4541.99575 1.06494e-17
4542.99565 1.06486e-17
4543.99555 1.06479e-17
4544.99546 1.06472e-17
4545.99536 1.06464e-17
4546.99525 1.08912e-17
4548.00515 1.09969e-17
4549.00505 1.09962e-17
4550.00495 1.16223e-17
4551.00485 1.17400e-17
4552.00475 1.17392e-17
4553.00465 1.31713e-17
4554.00455 1.32782e-17
4555.00445 1.32773e-17
4556.00435 1.31685e-17
4557.00425 1.32754e-17
4558.00415 1.32745e-17
4559.00405 1.24156e-17
4560.00395 1.24147e-17
4561.00385 1.23980e-17
4562.00375 1.23971e-17
4563.00365 1.23963e-17
4564.00355 1.24113e-17
4565.00345 1.23945e-17
4566.00335 1.23937e-17
4567.00325 1.23928e-17
4568.00315 1.23920e-17
4569.00305 1.25481e-17
4570.00295 1.25472e-17
4571.00285 1.25463e-17
4572.00275 1.25455e-17
4573.00265 1.29099e-17
4574.00255 1.42245e-17
4575.00245 1.40610e-17
4576.00235 1.40600e-17
4577.00225 1.25411e-17
4578.00215 1.25402e-17
4579.00205 1.25394e-17
4580.00195 1.25385e-17
4581.00185 1.25376e-17
4582.00175 1.25368e-17
4583.00165 1.18861e-17
4584.00155 1.25350e-17
4585.00145 1.18845e-17
4586.00135 1.15137e-17
4587.00125 1.02724e-17
4588.00115 1.00340e-17
4589.00105 1.02710e-17
4590.00095 1.00326e-17
4591.00085 1.00319e-17
4592.00075 9.48573e-18
4593.00065 1.01045e-17
4594.00055 1.02674e-17
4595.00045 1.09455e-17
4596.00035 1.11922e-17
4597.00025 1.15048e-17
4598.00015 1.15040e-17
4599.00005 1.11898e-17
4599.99995 1.11890e-17
4600.99985 1.09409e-17
4601.99975 1.02913e-17
4602.99965 1.09394e-17
4603.99955 1.11859e-17
4604.99945 1.13386e-17
4605.99935 1.13378e-17
4606.99925 1.25596e-17
4607.99915 1.25587e-17
4608.99905 1.35438e-17
4609.99895 1.35514e-17
4610.99885 1.35419e-17
4611.99875 1.13330e-17
4612.99865 1.13322e-17
4613.99855 1.13840e-17
4614.99845 1.02819e-17
4615.99835 1.02162e-17
4616.99825 1.13290e-17
4617.99815 1.13282e-17
4618.99805 1.21388e-17
4619.99795 1.21380e-17
4620.99785 1.10017e-17
4621.99775 1.10009e-17
4622.99765 1.13768e-17
4623.99755 1.09994e-17
4624.99745 1.02097e-17
4625.99735 1.07405e-17
4626.99725 9.43324e-18
4627.99715 9.43257e-18
4628.99705 9.61834e-18
4629.99695 9.61766e-18
4630.99685 9.87751e-18
4631.99675 1.07360e-17
4632.99665 1.09924e-17
4633.99655 1.07344e-17
4634.99645 1.12961e-17
4635.99635 1.09900e-17
4636.99625 1.12945e-17
4637.99615 1.12937e-17
4638.99605 1.12929e-17
4639.99595 1.14169e-17
4640.99585 1.17984e-17
4641.99575 1.26655e-17
4642.99565 1.17968e-17
4643.99555 1.26637e-17
4644.99545 1.17951e-17
4645.99535 1.17943e-17
4646.99525 1.15880e-17
4647.99515 1.15872e-17
4648.99505 1.14096e-17
4650.00495 1.14088e-17
4651.00485 1.11777e-17
4652.00475 1.12722e-17
4653.00465 1.15830e-17
4654.00455 1.15822e-17
4655.00445 1.15814e-17
4656.00435 1.11737e-17
4657.00425 1.11010e-17
4658.00415 1.08519e-17
4659.00405 1.11713e-17
4660.00395 1.08504e-17
4661.00385 1.08335e-17
4662.00375 1.08327e-17
4663.00365 1.08319e-17
4664.00355 1.10954e-17
4665.00345 1.06886e-17
4666.00335 1.05936e-17
4667.00325 1.05928e-17
4668.00315 1.08280e-17
4669.00305 1.08273e-17
4670.00295 1.05905e-17
4671.00285 1.05898e-17
4672.00275 1.02302e-17
4673.00265 1.02295e-17
4674.00255 9.76173e-18
4675.00245 9.76103e-18
4676.00235 8.88135e-18
4677.00225 8.68541e-18
4678.00215 1.02098e-17
4679.00205 1.02091e-17
4680.00195 1.02244e-17
4681.00185 1.02076e-17
4682.00175 1.02069e-17
4683.00165 8.87691e-18
4684.00155 8.51536e-18
4685.00145 8.51474e-18
4686.00135 7.97617e-18
4687.00125 7.97560e-18
4688.00115 8.40364e-18
4689.00105 8.51231e-18
4690.00095 8.40243e-18
4691.00085 7.66714e-18
4692.00075 7.36956e-18
4693.00065 7.44498e-18
4694.00055 7.44445e-18
4695.00045 7.44391e-18
4696.00035 7.36745e-18
4697.00025 7.36692e-18
4698.00015 6.68778e-18
4699.00005 7.33245e-18
4699.99995 6.68682e-18
4700.99985 6.40590e-18
4701.99975 6.40544e-18
4702.99965 5.90317e-18
4703.99955 5.90275e-18
4704.99945 6.40406e-18
4705.99935 5.98901e-18
4706.99925 5.98858e-18
4707.99915 6.40268e-18
4708.99905 6.40222e-18
4709.99895 5.55016e-18
4710.99885 5.98686e-18
4711.99875 5.54936e-18
4712.99865 5.54896e-18
4713.99855 5.54856e-18
4714.99845 5.54816e-18
4715.99835 5.36286e-18
4716.99825 5.36248e-18
4717.99815 4.91834e-18
4718.99805 4.75994e-18
4719.99795 4.75960e-18
4720.99785 4.67273e-18
4721.99775 4.67239e-18
4722.99765 4.10169e-18
4723.99755 4.75823e-18
4724.99745 4.67138e-18
4725.99735 4.67104e-18
4726.99725 4.67071e-18
4727.99715 4.10021e-18
4728.99705 4.41195e-18
4729.99695 4.41164e-18
4730.99685 4.09933e-18
4731.99675 3.92043e-18
4732.99665 3.92015e-18
4733.99655 4.41036e-18
4734.99645 4.41005e-18
4735.99635 5.22274e-18
4736.99625 4.40941e-18
4737.99615 6.06573e-18
4738.99605 6.71078e-18
4739.99595 6.45539e-18
4740.99585 5.18693e-18
4741.99575 6.31045e-18
4742.99565 6.45399e-18
4743.99555 6.70835e-18
4744.99545 6.85792e-18
4745.99535 6.94798e-18
4746.99525 7.49042e-18
4748.00515 7.92683e-18
4749.00505 8.00514e-18
4750.00495 8.03561e-18
4751.00485 8.14254e-18
4752.00475 8.03445e-18
4753.00465 8.15948e-18
4754.00455 8.15889e-18
4755.00445 8.14019e-18
4756.00435 8.15771e-18
4757.00425 8.64002e-18
4758.00415 8.93892e-18
4759.00405 9.21275e-18
4760.00395 9.55868e-18
4761.00385 9.21141e-18
4762.00375 9.31001e-18
4763.00365 9.21008e-18
4764.00355 9.30866e-18
4765.00345 9.20875e-18
4766.00335 9.30731e-18
4767.00325 8.69947e-18
4768.00315 8.63315e-18
4769.00305 9.06725e-18
4770.00295 9.06660e-18
4771.00285 9.20476e-18
4772.00275 9.06528e-18
4773.00265 9.06463e-18
4774.00255 9.06397e-18
4775.00245 9.06332e-18
4776.00235 9.06266e-18
4777.00225 8.69318e-18
4778.00215 9.06135e-18
4779.00205 9.06069e-18
4780.00195 9.46989e-18
4781.00185 9.72170e-18
4782.00175 9.39531e-18
4783.00165 9.72030e-18
4784.00155 9.77856e-18
4785.00145 9.84324e-18
4786.00135 9.78857e-18
4787.00125 9.78786e-18
4788.00115 9.77572e-18
4789.00105 9.78645e-18
4790.00095 9.83967e-18
4791.00085 9.78503e-18
4792.00075 9.71396e-18
4793.00065 9.51609e-18
4794.00055 9.51540e-18
4795.00045 8.91570e-18
4796.00035 8.91505e-18
4797.00025 8.40763e-18
4798.00015 8.40702e-18
4799.00005 8.91311e-18
4799.99995 8.91247e-18
4800.99985 8.91182e-18
4801.99975 8.91118e-18
4802.99965 9.34214e-18
4803.99955 9.34146e-18
4804.99945 8.97468e-18
4805.99935 8.40215e-18
4806.99925 8.40154e-18
4807.99915 8.97273e-18
4808.99905 8.97208e-18
4809.99895 9.33740e-18
4810.99885 9.51017e-18
4811.99875 9.50948e-18
4812.99865 9.72248e-18
4813.99855 9.72178e-18
4814.99845 9.75766e-18
4815.99835 9.50673e-18
4816.99825 9.50604e-18
4817.99815 8.54824e-18
4818.99805 7.80509e-18
4819.99795 8.54700e-18
4820.99785 8.54638e-18
4821.99775 7.53417e-18
4822.99765 7.80283e-18
4823.99755 8.17327e-18
4824.99745 8.17268e-18
4825.99735 8.17209e-18
4826.99725 7.80057e-18
4827.99715 7.53090e-18
4828.99705 7.63230e-18
4829.99695 8.16972e-18
4830.99685 7.63120e-18
4831.99675 7.63064e-18
4832.99665 8.16794e-18
4833.99655 8.16735e-18
4834.99645 8.28754e-18
4835.99635 8.28693e-18
4836.99625 8.16558e-18
4837.99615 7.69314e-18
4838.99605 8.28513e-18
4839.99595 8.16381e-18
4840.99585 8.28393e-18
4841.99575 8.40688e-18
4842.99565 8.40628e-18
4843.99555 9.10359e-18
4844.99545 9.85465e-18
4845.99535 9.85393e-18
4846.99525 9.85322e-18
4847.99515 1.01218e-17
4848.99505 1.01330e-17
4850.00495 1.01204e-17
4851.00485 9.85037e-18
4852.00475 9.84965e-18
4853.00465 9.84894e-18
4854.00455 9.84823e-18
4855.00445 9.84751e-18
4856.00435 8.77130e-18
4857.00425 8.77067e-18
4858.00415 1.01145e-17
4859.00405 1.01138e-17
4860.00395 9.08164e-18
4861.00385 9.08099e-18
4862.00375 9.08033e-18
4863.00365 8.96046e-18
4864.00355 8.95982e-18
4865.00345 8.92068e-18
4866.00335 8.92004e-18
4867.00325 9.07705e-18
4868.00315 9.95764e-18
4869.00305 9.95692e-18
4870.00295 9.96341e-18
4871.00285 1.03668e-17
4872.00275 1.06338e-17
4873.00265 1.06331e-17
4874.00255 1.09216e-17
4875.00245 1.06315e-17
4876.00235 9.95909e-18
4877.00225 1.06300e-17
4878.00215 9.95765e-18
4879.00205 9.95694e-18
4880.00195 9.94901e-18
4881.00185 9.09227e-18
4882.00175 9.09162e-18
4883.00165 9.00767e-18
4884.00155 8.87927e-18
4885.00145 8.27163e-18
4886.00135 7.97236e-18
4887.00125 7.97178e-18
4888.00115 7.97121e-18
4889.00105 7.97063e-18
4890.00095 7.97006e-18
4891.00085 7.89367e-18
4892.00075 8.24062e-18
4893.00065 8.26686e-18
4894.00055 8.26626e-18
4895.00045 7.89140e-18
4896.00035 7.33137e-18
4897.00025 7.33084e-18
4898.00015 7.33031e-18
4899.00005 7.88912e-18
4899.99995 7.88855e-18
4900.99985 8.23527e-18
4901.99975 8.83831e-18
4902.99965 9.37319e-18
4903.99955 8.95445e-18
4904.99945 8.83639e-18
4905.99935 8.49057e-18
4906.99925 8.83512e-18
4907.99915 8.83449e-18
4908.99905 8.83385e-18
4909.99895 8.83321e-18
4910.99885 8.48751e-18
4911.99875 8.83194e-18
4912.99865 8.83131e-18
4913.99855 8.48568e-18
4914.99845 7.53433e-18
4915.99835 7.53379e-18
4916.99825 6.96467e-18
4917.99815 6.96417e-18
4918.99805 6.96367e-18
4919.99795 6.53081e-18
4920.99785 6.96267e-18
4921.99775 6.96217e-18
4922.99765 6.96167e-18
4923.99755 6.96117e-18
4924.99745 6.96067e-18
4925.99735 6.64282e-18
4926.99725 6.95967e-18
4927.99715 7.21806e-18
4928.99705 6.64139e-18
4929.99695 7.21702e-18
4930.99685 7.27573e-18
4931.99675 7.28156e-18
4932.99665 7.74162e-18
4933.99655 7.80403e-18
4934.99645 7.80347e-18
4935.99635 8.01192e-18
4936.99625 8.01134e-18
4937.99615 7.73884e-18
4938.99605 7.42826e-18
4939.99595 7.27739e-18
4940.99585 7.27687e-18
4941.99575 7.42666e-18
4942.99565 7.79899e-18
4943.99555 8.90450e-18
4944.99545 1.02713e-17
4945.99535 1.02706e-17
4946.99525 1.04238e-17
4948.00515 1.04231e-17
4949.00505 1.02684e-17
4950.00495 1.02676e-17
4951.00485 1.04208e-17
4952.00475 1.26320e-17
4953.00465 1.30243e-17
4954.00455 1.30997e-17
4955.00445 1.30988e-17
4956.00435 1.30215e-17
4957.00425 1.30969e-17
4958.00415 1.28795e-17
4959.00405 1.28786e-17
4960.00395 1.28777e-17
4961.00385 1.26487e-17
4962.00375 1.26478e-17
4963.00365 1.28749e-17
4964.00355 1.30141e-17
4965.00345 1.30131e-17
4966.00335 1.30885e-17
4967.00325 1.30113e-17
4968.00315 1.30103e-17
4969.00305 1.34464e-17
4970.00295 1.34454e-17
4971.00285 1.36646e-17
4972.00275 1.34930e-17
4973.00265 1.34920e-17
4974.00255 1.34911e-17
4975.00245 1.36607e-17
4976.00235 1.38186e-17
4977.00225 1.38176e-17
4978.00215 1.38405e-17
4979.00205 1.38673e-17
4980.00195 1.45898e-17
4981.00185 1.50314e-17
4982.00175 1.49366e-17
4983.00165 1.48436e-17
4984.00155 1.45857e-17
4985.00145 1.45847e-17
4986.00135 1.45836e-17
4987.00125 1.48394e-17
4988.00115 1.48384e-17
4989.00105 1.49292e-17
4990.00095 1.53777e-17
4991.00085 1.54201e-17
4992.00075 1.56160e-17
4993.00065 1.56484e-17
4994.00055 1.56473e-17
4995.00045 1.56127e-17
4996.00035 1.56116e-17
4997.00025 1.56105e-17
4998.00015 1.64037e-17
4999.00005 1.72467e-17
4999.99995 1.64014e-17
5000.99985 1.64002e-17
5001.99975 1.63991e-17
5002.99965 1.63979e-17
5003.99955 1.54060e-17
5004.99945 1.49350e-17
5005.99935 1.47645e-17
5006.99925 1.47634e-17
5007.99915 1.49319e-17
5008.99905 1.45026e-17
5009.99895 1.47603e-17
5010.99885 1.42498e-17
5011.99875 1.44995e-17
5012.99865 1.44985e-17
5013.99855 1.43006e-17
5014.99845 1.42278e-17
5015.99835 1.41813e-17
5016.99825 1.42258e-17
5017.99815 1.39874e-17
5018.99805 1.39864e-17
5019.99795 1.39854e-17
5020.99785 1.40729e-17
5021.99775 1.42208e-17
5022.99765 1.40709e-17
5023.99755 1.39815e-17
5024.99745 1.37924e-17
5025.99735 1.30914e-17
5026.99725 1.22370e-17
5027.99715 1.18476e-17
5028.99705 1.18468e-17
5029.99695 1.20822e-17
5030.99685 1.24588e-17
5031.99675 1.24579e-17
5032.99665 1.20796e-17
5033.99655 1.20788e-17
5034.99645 1.20779e-17
5035.99635 1.20771e-17
5036.99625 1.16412e-17
5037.99615 1.16404e-17
5038.99605 1.16396e-17
5039.99595 1.17283e-17
5040.99585 1.17274e-17
5041.99575 1.16371e-17
5042.99565 1.15908e-17
5043.99555 1.14129e-17
5044.99545 1.14121e-17
5045.99535 1.14113e-17
5046.99525 1.08173e-17
5047.99515 1.07618e-17
5048.99505 1.07610e-17
5050.00495 1.08150e-17
5051.00485 1.08142e-17
5052.00475 1.08135e-17
5053.00465 1.07009e-17
5054.00455 1.04358e-17
5055.00445 1.02438e-17
5056.00435 1.01550e-17
5057.00425 1.01543e-17
5058.00415 1.01426e-17
5059.00405 1.02409e-17
5060.00395 1.04314e-17
5061.00385 1.02395e-17
5062.00375 1.02388e-17
5063.00365 1.01501e-17
5064.00355 1.00220e-17
5065.00345 9.18333e-18
5066.00335 8.33474e-18
5067.00325 8.10101e-18
5068.00315 8.33358e-18
5069.00305 7.77903e-18
5070.00295 8.33243e-18
5071.00285 8.19043e-18
5072.00275 8.18986e-18
5073.00265 7.77687e-18
5074.00255 7.70533e-18
5075.00245 6.77439e-18
5076.00235 6.70836e-18
5077.00225 6.15667e-18
5078.00215 6.15624e-18
5079.00205 6.15582e-18
5080.00195 6.73501e-18
5081.00185 6.73454e-18
5082.00175 6.86027e-18
5083.00165 6.86080e-18
5084.00155 6.85932e-18
5085.00145 6.73268e-18
5086.00135 6.47291e-18
5087.00125 6.47246e-18
5088.00115 6.47201e-18
5089.00105 6.49731e-18
5090.00095 6.73036e-18
5091.00085 6.85601e-18
5092.00075 7.32226e-18
5093.00065 7.44261e-18
5094.00055 7.56139e-18
5095.00045 7.56087e-18
5096.00035 8.37120e-18
5097.00025 8.98755e-18
5098.00015 9.27903e-18
5099.00005 9.80503e-18
5099.99995 9.27776e-18
5100.99985 9.27712e-18
5101.99975 9.27648e-18
5102.99965 9.83044e-18
5103.99955 9.82977e-18
5104.99945 9.82909e-18
5105.99935 9.80032e-18
5106.99925 9.79965e-18
5107.99915 1.07320e-17
5108.99905 1.07355e-17
5109.99895 1.07352e-17
5110.99885 1.08832e-17
5111.99875 1.08825e-17
5112.99865 1.08817e-17
5113.99855 1.07322e-17
5114.99845 1.07311e-17
5115.99835 1.03408e-17
5116.99825 1.07296e-17
5117.99815 1.07293e-17
5118.99805 1.08773e-17
5119.99795 1.10130e-17
5120.99785 1.14439e-17
5121.99775 1.15096e-17
5122.99765 1.17144e-17
5123.99755 1.17136e-17
5124.99745 1.16236e-17
5125.99735 1.14401e-17
5126.99725 1.14393e-17
5127.99715 1.16212e-17
5128.99705 1.16204e-17
5129.99695 1.17088e-17
5130.99685 1.24097e-17
5131.99675 1.24840e-17
5132.99665 1.24831e-17
5133.99655 1.24071e-17
5134.99645 1.24063e-17
5135.99635 1.24054e-17
5136.99625 1.24046e-17
5137.99615 1.24038e-17
5138.99605 1.25949e-17
5139.99595 1.24021e-17
5140.99585 1.25932e-17
5141.99575 1.27457e-17
5142.99565 1.27449e-17
5143.99555 1.27976e-17
5144.99545 1.27968e-17
5145.99535 1.27959e-17
5146.99525 1.31311e-17
5148.00515 1.32978e-17
5149.00505 1.32969e-17
5150.00495 1.36360e-17
5151.00485 1.37596e-17
5152.00475 1.40671e-17
5153.00465 1.40662e-17
5154.00455 1.37568e-17
5155.00445 1.36871e-17
5156.00435 1.36937e-17
5157.00425 1.37540e-17
5158.00415 1.37531e-17
5159.00405 1.36909e-17
5160.00395 1.36900e-17
5161.00385 1.40586e-17
5162.00375 1.40577e-17
5163.00365 1.36873e-17
5164.00355 1.29981e-17
5165.00345 1.25579e-17
5166.00335 1.25570e-17
5167.00325 1.25562e-17
5168.00315 1.25554e-17
5169.00305 1.27707e-17
5170.00295 1.27772e-17
5171.00285 1.27764e-17
5172.00275 1.27755e-17
5173.00265 1.27673e-17
5174.00255 1.17291e-17
5175.00245 1.16013e-17
5176.00235 1.12412e-17
5177.00225 1.08812e-17
5178.00215 1.08804e-17
5179.00205 1.15982e-17
5180.00195 1.20478e-17
5181.00185 1.27605e-17
5182.00175 1.27596e-17
5183.00165 1.27588e-17
5184.00155 1.20446e-17
5185.00145 1.18719e-17
5186.00135 1.12338e-17
5187.00125 1.08739e-17
5188.00115 1.09770e-17
5189.00105 1.10260e-17
5190.00095 1.09755e-17
5191.00085 1.05569e-17
5192.00075 1.07400e-17
5193.00065 1.09734e-17
5194.00055 1.10223e-17
5195.00045 1.10216e-17
5196.00035 1.10209e-17
5197.00025 1.09705e-17
5198.00015 1.10194e-17
5199.00005 1.10187e-17
5199.99995 1.10179e-17
5200.99985 1.09676e-17
5201.99975 1.09669e-17
5202.99965 1.10158e-17
5203.99955 1.14784e-17
5204.99945 1.17651e-17
5205.99935 1.17643e-17
5206.99925 1.21342e-17
5207.99915 1.24459e-17
5208.99905 1.24450e-17
5209.99895 1.23583e-17
5210.99885 1.22745e-17
5211.99875 1.17597e-17
5212.99865 1.17589e-17
5213.99855 1.17581e-17
5214.99845 1.15139e-17
5215.99835 1.15132e-17
5216.99825 1.15124e-17
5217.99815 1.15526e-17
5218.99805 1.21586e-17
5219.99795 1.22673e-17
5220.99785 1.21570e-17
5221.99775 1.22657e-17
5222.99765 1.23697e-17
5223.99755 1.22641e-17
5224.99745 1.23681e-17
5225.99735 1.23673e-17
5226.99725 1.23664e-17
5227.99715 1.26185e-17
5228.99705 1.26682e-17
5229.99695 1.26168e-17
5230.99685 1.26160e-17
5231.99675 1.26657e-17
5232.99665 1.31274e-17
5233.99655 1.31266e-17
5234.99645 1.31257e-17
5235.99635 1.34679e-17
5236.99625 1.35247e-17
5237.99615 1.35238e-17
5238.99605 1.34653e-17
5239.99595 1.34644e-17
5240.99585 1.31022e-17
5241.99575 1.32718e-17
5242.99565 1.31005e-17
5243.99555 1.30981e-17
5244.99545 1.24876e-17
5245.99535 1.27995e-17
5246.99525 1.30955e-17
5247.99515 1.30947e-17
5248.99505 1.30938e-17
5249.99495 1.32649e-17
5251.00485 1.35125e-17
5252.00475 1.35685e-17
5253.00465 1.32624e-17
5254.00455 1.32615e-17
5255.00445 1.32606e-17
5256.00435 1.35651e-17
5257.00425 1.32589e-17
5258.00415 1.29556e-17
5259.00405 1.29547e-17
5260.00395 1.29539e-17
5261.00385 1.41982e-17
5262.00375 1.42269e-17
5263.00365 1.41964e-17
5264.00355 1.36577e-17
5265.00345 1.36569e-17
5266.00335 1.36560e-17
5267.00325 1.36551e-17
5268.00315 1.36543e-17
5269.00305 1.29465e-17
5270.00295 1.36525e-17
5271.00285 1.39504e-17
5272.00275 1.37608e-17
5273.00265 1.35001e-17
5274.00255 1.34992e-17
5275.00245 1.37581e-17
5276.00235 1.39460e-17
5277.00225 1.40386e-17
5278.00215 1.40786e-17
5279.00205 1.40368e-17
5280.00195 1.40768e-17
5281.00185 1.41602e-17
5282.00175 1.40751e-17
5283.00165 1.40742e-17
5284.00155 1.41575e-17
5285.00145 1.40724e-17
5286.00135 1.40715e-17
5287.00125 1.42416e-17
5288.00115 1.41539e-17
5289.00105 1.41530e-17
5290.00095 1.42389e-17
5291.00085 1.42380e-17
5292.00075 1.41503e-17
5293.00065 1.42362e-17
5294.00055 1.42353e-17
5295.00045 1.43715e-17
5296.00035 1.52198e-17
5297.00025 1.55224e-17
5298.00015 1.55880e-17
5299.00005 1.55204e-17
5299.99995 1.55195e-17
5300.99985 1.55185e-17
5301.99975 1.48808e-17
5302.99965 1.45022e-17
5303.99955 1.43935e-17
5304.99945 1.43926e-17
5305.99935 1.43917e-17
5306.99925 1.48762e-17
5307.99915 1.43899e-17
5308.99905 1.43805e-17
5309.99895 1.41784e-17
5310.99885 1.41775e-17
5311.99875 1.42313e-17
5312.99865 1.42304e-17
5313.99855 1.41748e-17
5314.99845 1.42286e-17
5315.99835 1.43742e-17
5316.99825 1.43819e-17
5317.99815 1.43810e-17
5318.99805 1.43801e-17
5319.99795 1.46227e-17
5320.99785 1.46218e-17
5321.99775 1.44088e-17
5322.99765 1.44079e-17
5323.99755 1.46191e-17
5324.99745 1.49849e-17
5325.99735 1.49840e-17
5326.99725 1.49084e-17
5327.99715 1.46155e-17
5328.99705 1.49066e-17
5329.99695 1.49057e-17
5330.99685 1.49048e-17
5331.99675 1.46119e-17
5332.99665 1.46110e-17
5333.99655 1.49766e-17
5334.99645 1.49757e-17
5335.99635 1.48972e-17
5336.99625 1.48963e-17
5337.99615 1.49729e-17
5338.99605 1.49720e-17
5339.99595 1.52451e-17
5340.99585 1.52441e-17
5341.99575 1.52477e-17
5342.99565 1.52423e-17
5343.99555 1.52413e-17
5344.99545 1.50292e-17
5345.99535 1.50283e-17
5346.99525 1.50274e-17
5348.00515 1.48862e-17
5349.00505 1.48586e-17
5350.00495 1.47341e-17
5351.00485 1.43187e-17
5352.00475 1.43179e-17
5353.00465 1.40381e-17
5354.00455 1.40373e-17
5355.00445 1.40364e-17
5356.00435 1.40162e-17
5357.00425 1.40153e-17
5358.00415 1.40339e-17
5359.00405 1.40330e-17
5360.00395 1.40322e-17
5361.00385 1.43100e-17
5362.00375 1.40305e-17
5363.00365 1.40296e-17
5364.00355 1.43074e-17
5365.00345 1.45772e-17
5366.00335 1.45833e-17
5367.00325 1.47647e-17
5368.00315 1.49569e-17
5369.00305 1.53780e-17
5370.00295 1.53771e-17
5371.00285 1.53762e-17
5372.00275 1.49533e-17
5373.00265 1.47593e-17
5374.00255 1.47584e-17
5375.00245 1.47398e-17
5376.00235 1.47389e-17
5377.00225 1.47380e-17
5378.00215 1.50261e-17
5379.00205 1.53008e-17
5380.00195 1.53679e-17
5381.00185 1.52990e-17
5382.00175 1.52980e-17
5383.00165 1.52971e-17
5384.00155 1.50207e-17
5385.00145 1.52953e-17
5386.00135 1.50189e-17
5387.00125 1.50180e-17
5388.00115 1.50171e-17
5389.00105 1.56572e-17
5390.00095 1.56563e-17
5391.00085 1.56553e-17
5392.00075 1.56812e-17
5393.00065 1.56915e-17
5394.00055 1.56906e-17
5395.00045 1.58985e-17
5396.00035 1.56774e-17
5397.00025 1.55304e-17
5398.00015 1.56756e-17
5399.00005 1.58947e-17
5399.99995 1.58938e-17
5400.99985 1.56728e-17
5401.99975 1.56719e-17
5402.99965 1.55249e-17
5403.99955 1.55240e-17
5404.99945 1.56681e-17
5405.99935 1.55222e-17
5406.99925 1.54307e-17
5407.99915 1.54298e-17
5408.99905 1.52365e-17
5409.99895 1.47406e-17
5410.99885 1.51366e-17
5411.99875 1.52338e-17
5412.99865 1.52329e-17
5413.99855 1.53286e-17
5414.99845 1.53277e-17
5415.99835 1.54226e-17
5416.99825 1.54217e-17
5417.99815 1.54208e-17
5418.99805 1.56552e-17
5419.99795 1.57781e-17
5420.99785 1.57772e-17
5421.99775 1.60955e-17
5422.99765 1.57753e-17
5423.99755 1.57744e-17
5424.99745 1.57735e-17
5425.99735 1.60918e-17
5426.99725 1.57717e-17
5427.99715 1.57707e-17
5428.99705 1.57698e-17
5429.99695 1.53746e-17
5430.99685 1.53915e-17
5431.99675 1.53907e-17
5432.99665 1.53898e-17
5433.99655 1.53889e-17
5434.99645 1.53880e-17
5435.99635 1.53871e-17
5436.99625 1.53862e-17
5437.99615 1.53853e-17
5438.99605 1.53666e-17
5439.99595 1.53835e-17
5440.99585 1.54005e-17
5441.99575 1.54175e-17
5442.99565 1.54344e-17
5443.99555 1.54514e-17
5444.99545 1.54684e-17
5445.99535 1.54853e-17
5446.99525 1.55023e-17
5447.99515 1.55193e-17
5448.99505 1.55362e-17
5449.99495 1.55532e-17
5451.00485 1.55701e-17
5452.00475 1.55871e-17
5453.00464 1.56041e-17
5454.00455 1.56210e-17
5455.00445 1.56380e-17
5456.00435 1.56549e-17
5457.00425 1.56719e-17
5458.00414 1.56888e-17
5459.00405 1.57058e-17
5460.00395 1.57227e-17
5461.00385 1.57396e-17
5462.00374 1.57566e-17
5463.00365 1.57735e-17
5464.00355 1.57905e-17
5465.00345 1.58074e-17
5466.00335 1.58243e-17
5467.00324 1.58413e-17
5468.00315 1.58582e-17
5469.00305 1.58751e-17
5470.00295 1.58921e-17
5471.00284 1.59090e-17
5472.00275 1.59259e-17
5473.00265 1.59429e-17
5474.00255 1.59598e-17
5475.00245 1.59767e-17
5476.00234 1.59936e-17
5477.00225 1.60106e-17
5478.00215 1.60275e-17
5479.00205 1.60444e-17
5480.00194 1.60613e-17
5481.00185 1.60782e-17
5482.00175 1.60951e-17
5483.00165 1.61120e-17
5484.00155 1.61290e-17
5485.00144 1.61281e-17
5486.00135 1.61272e-17
5487.00125 1.61263e-17
5488.00115 1.61254e-17
5489.00104 1.61423e-17
5490.00095 1.64410e-17
5491.00085 1.64510e-17
5492.00075 1.68231e-17
5493.00065 1.69369e-17
5494.00054 1.72216e-17
5495.00045 1.72707e-17
5496.00035 1.69341e-17
5497.00025 1.69331e-17
5498.00014 1.71325e-17
5499.00005 1.67878e-17
5499.99995 1.67869e-17
5500.99985 1.70334e-17
5501.99975 1.71287e-17
5502.99964 1.72631e-17
5503.99955 1.74803e-17
5504.99945 1.76898e-17
5505.99935 1.78687e-17
5506.99924 1.79008e-17
5507.99915 1.79971e-17
5508.99905 1.78988e-17
5509.99895 1.79951e-17
5510.99885 1.80772e-17
5511.99874 1.82699e-17
5512.99865 1.86156e-17
5513.99855 1.83986e-17
5514.99845 1.83976e-17
5515.99834 1.86125e-17
5516.99825 1.86115e-17
5517.99815 1.86105e-17
5518.99805 1.86496e-17
5519.99795 1.83926e-17
5520.99784 1.82099e-17
5521.99775 1.86064e-17
5522.99765 1.82079e-17
5523.99755 1.81017e-17
5524.99744 1.82059e-17
5525.99735 1.82049e-17
5526.99725 1.82039e-17
5527.99715 1.82029e-17
5528.99705 1.80968e-17
5529.99694 1.82010e-17
5530.99685 1.84724e-17
5531.99675 1.81990e-17
5532.99665 1.81286e-17
5533.99654 1.81276e-17
5534.99645 1.81266e-17
5535.99635 1.81422e-17
5536.99625 1.81941e-17
5537.99615 1.84654e-17
5538.99604 1.84738e-17
5539.99595 1.85265e-17
5540.99585 1.88620e-17
5541.99575 1.92209e-17
5542.99564 1.93538e-17
5543.99555 1.93528e-17
5544.99545 1.93517e-17
5545.99535 1.90865e-17
5546.99525 1.92157e-17
5548.00514 1.92147e-17
5549.00504 1.92137e-17
5550.00494 1.92126e-17
5551.00484 1.92116e-17
5552.00474 1.92106e-17
5553.00464 1.92095e-17
5554.00454 1.95419e-17
5555.00444 1.83578e-17
5556.00434 1.74086e-17
5557.00424 1.69256e-17
5558.00414 1.64970e-17
5559.00404 1.64962e-17
5560.00394 1.63691e-17
5561.00384 1.60725e-17
5562.00374 1.60717e-17
5563.00364 1.58844e-17
5564.00354 1.58835e-17
5565.00344 1.59448e-17
5566.00334 1.59439e-17
5567.00324 1.59431e-17
5568.00314 1.59423e-17
5569.00304 1.61685e-17
5570.00294 1.61677e-17
5571.00284 1.63595e-17
5572.00274 1.64848e-17
5573.00264 1.61651e-17
5574.00254 1.74597e-17
5575.00244 1.87785e-17
5576.00234 1.87775e-17
5577.00224 1.87766e-17
5578.00214 1.87756e-17
5579.00204 1.87746e-17
5580.00194 1.87736e-17
5581.00184 1.87726e-17
5582.00174 1.87716e-17
5583.00164 1.72854e-17
5584.00154 1.61481e-17
5585.00144 1.52574e-17
5586.00134 1.48535e-17
5587.00124 1.38964e-17
5588.00114 1.38916e-17
5589.00104 1.37965e-17
5590.00094 1.25314e-17
5591.00084 1.23293e-17
5592.00074 1.25301e-17
5593.00064 1.25295e-17
5594.00054 1.25288e-17
5595.00044 1.25282e-17
5596.00034 1.25275e-17
5597.00024 1.23254e-17
5598.00014 1.17970e-17
5599.00004 1.15748e-17
5599.99994 1.15742e-17
5600.99984 1.15736e-17
5601.99974 1.17945e-17
5602.99964 1.19443e-17
5603.99954 1.20488e-17
5604.99944 1.26202e-17
5605.99934 1.26642e-17
5606.99924 1.27931e-17
5607.99914 1.27924e-17
5608.99904 1.26176e-17
5609.99894 1.23918e-17
5610.99884 1.20444e-17
5611.99874 1.19388e-17
5612.99864 1.19295e-17
5613.99854 1.19375e-17
5614.99844 1.20419e-17
5615.99834 1.26130e-17
5616.99824 1.23874e-17
5617.99814 1.23654e-17
5618.99804 1.23648e-17
5619.99794 1.23642e-17
5620.99784 1.26545e-17
5621.99774 1.23629e-17
5622.99764 1.19234e-17
5623.99754 1.19228e-17
5624.99744 1.23405e-17
5625.99734 1.26982e-17
5626.99724 1.23598e-17
5627.99714 1.26295e-17
5628.99704 1.26963e-17
5629.99694 1.26956e-17
5630.99684 1.26950e-17
5631.99674 1.26269e-17
5632.99664 1.23560e-17
5633.99654 1.26256e-17
5634.99644 1.27346e-17
5635.99634 1.27700e-17
5636.99624 1.27333e-17
5637.99614 1.27687e-17
5638.99604 1.27680e-17
5639.99594 1.27674e-17
5640.99584 1.26212e-17
5641.99574 1.23378e-17
5642.99564 1.22838e-17
5643.99554 1.22832e-17
5644.99544 1.22826e-17
5645.99534 1.22820e-17
5646.99524 1.24020e-17
5647.99514 1.27919e-17
5648.99504 1.27912e-17
5649.99494 1.24002e-17
5651.00484 1.22789e-17
5652.00474 1.21786e-17
5653.00464 1.06415e-17
5654.00454 1.05442e-17
5655.00444 9.86087e-18
5656.00434 9.65609e-18
5657.00424 9.46589e-18
5658.00414 9.46542e-18
5659.00404 9.46495e-18
5660.00394 9.46448e-18
5661.00384 9.35696e-18
5662.00374 9.35650e-18
5663.00364 9.43280e-18
5664.00354 9.35557e-18
5665.00344 9.13643e-18
5666.00334 9.13598e-18
5667.00324 9.13553e-18
5668.00314 9.13508e-18
5669.00304 9.13463e-18
5670.00294 9.08085e-18
5671.00284 9.08040e-18
5672.00274 9.54346e-18
5673.00264 9.54775e-18
5674.00254 9.71968e-18
5675.00244 9.71920e-18
5676.00234 9.81865e-18
5677.00224 1.03224e-17
5678.00214 1.03219e-17
5679.00204 1.03214e-17
5680.00194 1.03209e-17
5681.00184 1.04016e-17
5682.00174 1.04011e-17
5683.00164 1.05863e-17
5684.00154 1.04001e-17
5685.00144 1.02870e-17
5686.00134 1.02865e-17
5687.00124 9.99244e-18
5688.00114 9.67364e-18
5689.00104 9.25771e-18
5690.00094 8.75466e-18
5691.00084 7.91998e-18
5692.00074 7.32559e-18
5693.00064 7.16054e-18
5694.00054 7.16019e-18
5695.00044 7.01718e-18
5696.00034 7.01684e-18
5697.00024 6.86374e-18
5698.00014 6.86165e-18
5699.00004 6.60547e-18
5699.99994 6.24678e-18
5700.99984 6.18780e-18
5701.99974 6.08481e-18
5702.99964 6.08451e-18
5703.99954 5.76141e-18
5704.99944 5.76113e-18
5705.99934 5.70405e-18
5706.99924 5.70378e-18
5707.99914 5.70350e-18
5708.99904 5.62049e-18
5709.99894 5.42982e-18
5710.99884 5.34310e-18
5711.99874 5.16030e-18
5712.99864 5.16005e-18
5713.99854 5.15981e-18
5714.99844 5.05298e-18
5715.99834 4.64167e-18
5716.99824 4.64145e-18
5717.99814 4.53482e-18
5718.99804 4.01485e-18
5719.99794 3.99516e-18
5720.99784 3.72268e-18
5721.99774 3.71549e-18
5722.99764 3.71531e-18
5723.99754 3.32458e-18
5724.99744 3.24442e-18
5725.99734 3.14804e-18
5726.99724 3.04887e-18
5727.99714 3.04873e-18
5728.99704 2.93412e-18
5729.99694 2.97191e-18
5730.99684 2.97177e-18
5731.99674 2.93391e-18
5732.99664 2.93356e-18
5733.99654 2.86165e-18
5734.99644 2.60478e-18
5735.99634 2.54972e-18
5736.99624 2.54960e-18
5737.99614 2.54948e-18
5738.99604 2.60429e-18
5739.99594 2.85427e-18
5740.99584 2.93266e-18
5741.99574 2.97024e-18
5742.99564 2.97010e-18
5743.99554 2.96996e-18
5744.99544 2.85360e-18
5745.99534 2.93198e-18
5746.99524 2.93184e-18
5748.00514 2.93170e-18
5749.00504 3.01620e-18
5750.00494 3.01606e-18
5751.00484 3.24683e-18
5752.00474 3.36748e-18
5753.00464 3.45746e-18
5754.00454 3.45931e-18
5755.00444 3.45915e-18
5756.00434 4.18528e-18
5757.00424 4.24378e-18
5758.00414 4.38986e-18
5759.00404 5.36519e-18
5760.00394 5.47761e-18
5761.00384 5.47736e-18
5762.00374 5.69495e-18
5763.00364 5.79871e-18
5764.00354 5.82030e-18
5765.00344 6.31737e-18
5766.00334 6.36419e-18
5767.00324 6.36390e-18
5768.00314 6.68114e-18
5769.00304 6.68084e-18
5770.00294 6.68053e-18
5771.00284 6.68022e-18
5772.00274 6.67992e-18
5773.00264 6.67961e-18
5774.00254 6.67930e-18
5775.00244 7.02911e-18
5776.00234 7.46480e-18
5777.00224 7.46446e-18
5778.00214 7.46412e-18
5779.00204 7.46378e-18
5780.00194 7.46344e-18
5781.00184 7.46310e-18
5782.00174 7.46276e-18
5783.00164 7.08205e-18
5784.00154 7.46208e-18
5785.00144 8.45310e-18
5786.00134 8.47861e-18
5787.00124 8.99347e-18
5788.00114 8.99306e-18
5789.00104 8.99921e-18
5790.00094 9.21990e-18
5791.00084 9.82778e-18
5792.00074 1.00159e-17
5793.00064 1.00154e-17
5794.00054 1.01472e-17
5795.00044 1.01467e-17
5796.00034 1.02023e-17
5797.00024 1.05680e-17
5798.00014 1.02014e-17
5799.00004 1.02009e-17
5799.99994 1.02004e-17
5800.99984 1.02019e-17
5801.99974 1.01995e-17
5802.99964 1.01991e-17
5803.99954 1.01986e-17
5804.99944 1.02000e-17
5805.99934 1.05638e-17
5806.99924 1.05633e-17
5807.99914 1.05628e-17
5808.99904 1.11831e-17
5809.99894 1.13252e-17
5810.99884 1.13610e-17
5811.99874 1.15459e-17
5812.99864 1.15454e-17
5813.99854 1.17967e-17
5814.99844 1.19744e-17
5815.99834 1.20394e-17
5816.99824 1.23322e-17
5817.99814 1.23405e-17
5818.99804 1.23399e-17
5819.99794 1.26449e-17
5820.99784 1.27760e-17
5821.99774 1.27970e-17
5822.99764 1.44074e-17
5823.99754 1.45286e-17
5824.99744 1.47724e-17
5825.99734 1.47718e-17
5826.99724 1.45267e-17
5827.99714 1.45260e-17
5828.99704 1.48459e-17
5829.99694 1.47692e-17
5830.99684 1.47685e-17
5831.99674 1.48440e-17
5832.99664 1.48758e-17
5833.99654 1.53044e-17
5834.99644 1.53037e-17
5835.99634 1.53031e-17
5836.99624 1.52829e-17
5837.99614 1.53017e-17
5838.99604 1.53011e-17
5839.99594 1.53004e-17
5840.99584 1.52997e-17
5841.99574 1.56982e-17
5842.99564 1.57412e-17
5843.99554 1.59222e-17
5844.99544 1.60050e-17
5845.99534 1.60043e-17
5846.99524 1.67251e-17
5847.99514 1.82518e-17
5848.99504 1.85026e-17
5849.99494 1.93720e-17
5851.00484 2.02890e-17
5852.00474 2.03273e-17
5853.00464 2.03264e-17
5854.00454 2.03256e-17
5855.00444 2.03247e-17
5856.00434 2.03238e-17
5857.00424 2.03229e-17
5858.00414 2.03220e-17
5859.00404 2.03212e-17
5860.00394 2.02938e-17
5861.00384 2.03194e-17
5862.00374 2.03185e-17
5863.00364 2.03177e-17
5864.00354 2.03168e-17
5865.00344 2.03159e-17
5866.00334 2.03150e-17
5867.00324 2.03142e-17
5868.00314 2.03133e-17
5869.00304 2.08810e-17
5870.00294 2.08801e-17
5871.00284 2.08792e-17
5872.00274 2.08783e-17
5873.00264 2.08775e-17
5874.00254 2.17059e-17
5875.00244 2.18675e-17
5876.00234 2.23197e-17
5877.00224 2.26258e-17
5878.00214 2.21384e-17
5879.00204 2.18638e-17
5880.00194 2.17003e-17
5881.00184 2.10667e-17
5882.00174 2.07805e-17
5883.00164 2.07796e-17
5884.00154 2.07787e-17
5885.00144 2.05029e-17
5886.00134 2.05021e-17
5887.00124 2.10367e-17
5888.00114 2.10604e-17
5889.00104 2.14707e-17
5890.00094 2.15737e-17
5891.00084 2.10577e-17
5892.00074 2.10569e-17
5893.00064 2.10313e-17
5894.00054 2.08842e-17
5895.00044 2.03708e-17
5896.00034 2.03700e-17
5897.00024 2.03691e-17
5898.00014 2.04158e-17
5899.00004 2.08798e-17
5899.99994 2.10065e-17
5900.99984 2.08780e-17
5901.99974 2.04124e-17
5902.99964 2.05365e-17
5903.99954 2.04107e-17
5904.99944 2.02691e-17
5905.99934 2.02267e-17
5906.99924 2.00144e-17
5907.99914 2.00102e-17
5908.99904 2.00094e-17
5909.99894 2.00085e-17
5910.99884 2.00077e-17
5911.99874 1.94155e-17
5912.99864 2.02208e-17
5913.99854 2.02385e-17
5914.99844 2.02192e-17
5915.99834 2.00448e-17
5916.99824 1.94527e-17
5917.99814 1.94107e-17
5918.99804 1.94099e-17
5919.99794 1.94503e-17
5920.99784 1.94083e-17
5921.99774 1.94487e-17
5922.99764 1.97291e-17
5923.99754 1.98906e-17
5924.99744 2.00373e-17
5925.99734 2.04338e-17
5926.99724 2.00357e-17
5927.99714 2.00348e-17
5928.99704 2.05468e-17
5929.99694 2.08447e-17
5930.99684 2.08438e-17
5931.99674 2.06919e-17
5932.99664 2.06911e-17
5933.99654 2.06902e-17
5934.99644 2.06894e-17
5935.99634 2.04374e-17
5936.99624 1.98799e-17
5937.99614 1.97169e-17
5938.99604 1.92558e-17
5939.99594 1.92550e-17
5940.99584 1.92543e-17
5941.99574 1.90350e-17
5942.99564 1.88644e-17
5943.99554 1.83659e-17
5944.99544 1.83346e-17
5945.99534 1.83339e-17
5946.99524 1.79414e-17
5947.99514 1.75181e-17
5949.00504 1.75066e-17
5950.00494 1.74445e-17
5951.00484 1.74438e-17
5952.00474 1.74056e-17
5953.00464 1.74049e-17
5954.00454 1.74042e-17
5955.00444 1.74035e-17
5956.00434 1.71224e-17
5957.00424 1.71217e-17
5958.00414 1.74014e-17
5959.00404 1.74007e-17
5960.00394 1.74000e-17
5961.00384 1.69958e-17
5962.00374 1.73986e-17
5963.00364 1.74967e-17
5964.00354 1.74960e-17
5965.00344 1.74953e-17
5966.00334 1.75270e-17
5967.00324 1.75263e-17
5968.00314 1.75732e-17
5969.00304 1.75725e-17
5970.00294 1.69661e-17
5971.00284 1.68756e-17
5972.00274 1.68750e-17
5973.00264 1.68743e-17
5974.00254 1.68246e-17
5975.00244 1.67932e-17
5976.00234 1.67925e-17
5977.00224 1.66556e-17
5978.00214 1.65706e-17
5979.00204 1.64676e-17
5980.00194 1.64181e-17
5981.00184 1.62689e-17
5982.00174 1.62460e-17
5983.00164 1.61566e-17
5984.00154 1.61539e-17
5985.00144 1.61533e-17
5986.00134 1.60192e-17
5987.00124 1.60186e-17
5988.00114 1.56366e-17
5989.00104 1.56359e-17
5990.00094 1.56456e-17
5991.00084 1.56450e-17
5992.00074 1.56341e-17
5993.00064 1.53677e-17
5994.00054 1.53253e-17
5995.00044 1.53247e-17
5996.00034 1.51387e-17
5997.00024 1.49033e-17
5998.00014 1.45541e-17
5999.00004 1.45536e-17
5999.99994 1.49016e-17
6000.99984 1.51357e-17
6001.99974 1.49004e-17
6002.99964 1.48947e-17
6003.99954 1.46448e-17
6004.99944 1.43569e-17
6005.99934 1.41501e-17
6006.99924 1.41495e-17
6007.99914 1.40173e-17
6008.99904 1.40168e-17
6009.99894 1.41479e-17
6010.99884 1.45590e-17
6011.99874 1.45584e-17
6012.99864 1.45579e-17
6013.99854 1.43519e-17
6014.99844 1.43120e-17
6015.99834 1.45562e-17
6016.99824 1.40124e-17
6017.99814 1.37491e-17
6018.99804 1.36837e-17
6019.99794 1.36832e-17
6020.99784 1.40103e-17
6021.99774 1.43081e-17
6022.99764 1.40092e-17
6023.99754 1.40086e-17
6024.99744 1.44417e-17
6025.99734 1.43059e-17
6026.99724 1.43054e-17
6027.99714 1.43048e-17
6028.99704 1.43043e-17
6029.99694 1.44389e-17
6030.99684 1.44383e-17
6031.99674 1.44378e-17
6032.99664 1.43774e-17
6033.99654 1.44367e-17
6034.99644 1.43763e-17
6035.99634 1.43757e-17
6036.99624 1.43752e-17
6037.99614 1.41495e-17
6038.99604 1.36648e-17
6039.99594 1.36643e-17
6040.99584 1.35120e-17
6041.99574 1.35114e-17
6042.99564 1.36455e-17
6043.99554 1.35104e-17
6044.99544 1.34910e-17
6045.99534 1.32224e-17
6046.99524 1.30810e-17
6047.99514 1.30805e-17
6048.99504 1.29717e-17
6049.99494 1.25628e-17
6051.00484 1.25623e-17
6052.00474 1.25619e-17
6053.00464 1.26596e-17
6054.00454 1.26591e-17
6055.00444 1.26043e-17
6056.00434 1.26581e-17
6057.00424 1.26577e-17
6058.00414 1.26029e-17
6059.00404 1.21949e-17
6060.00394 1.21487e-17
6061.00384 1.21483e-17
6062.00374 1.21478e-17
6063.00364 1.20619e-17
6064.00354 1.20404e-17
6065.00344 1.18209e-17
6066.00334 1.18204e-17
6067.00324 1.16251e-17
6068.00314 1.16247e-17
6069.00304 1.16242e-17
6070.00294 1.16238e-17
6071.00284 1.16118e-17
6072.00274 1.15853e-17
6073.00264 1.12702e-17
6074.00254 1.12698e-17
6075.00244 1.12694e-17
6076.00234 1.12013e-17
6077.00224 1.12008e-17
6078.00214 1.12681e-17
6079.00204 1.12677e-17
6080.00194 1.12672e-17
6081.00184 1.12674e-17
6082.00174 1.12670e-17
6083.00164 1.14885e-17
6084.00154 1.15801e-17
6085.00144 1.15796e-17
6086.00134 1.19356e-17
6087.00124 1.24500e-17
6088.00114 1.24663e-17
6089.00104 1.24658e-17
6090.00094 1.24487e-17
6091.00084 1.24649e-17
6092.00074 1.24645e-17
6093.00064 1.24640e-17
6094.00054 1.24919e-17
6095.00044 1.29283e-17
6096.00034 1.29278e-17
6097.00024 1.29273e-17
6098.00014 1.29268e-17
6099.00004 1.26559e-17
6099.99994 1.24615e-17
6100.99984 1.24603e-17
6101.99974 1.23313e-17
6102.99964 1.23176e-17
6103.99954 1.23171e-17
6104.99944 1.23300e-17
6105.99934 1.24587e-17
6106.99924 1.27976e-17
6107.99914 1.27971e-17
6108.99904 1.27967e-17
6109.99894 1.27962e-17
6110.99884 1.27957e-17
6111.99874 1.24560e-17
6112.99864 1.27948e-17
6113.99854 1.33244e-17
6114.99844 1.36997e-17
6115.99834 1.38538e-17
6116.99824 1.38533e-17
6117.99814 1.38528e-17
6118.99804 1.38523e-17
6119.99794 1.40232e-17
6120.99784 1.40549e-17
6121.99774 1.40544e-17
6122.99764 1.40539e-17
6123.99754 1.40211e-17
6124.99744 1.40529e-17
6125.99734 1.40524e-17
6126.99724 1.40519e-17
6127.99714 1.38711e-17
6128.99704 1.40508e-17
6129.99694 1.41480e-17
6130.99684 1.41715e-17
6131.99674 1.41709e-17
6132.99664 1.42759e-17
6133.99654 1.42855e-17
6134.99644 1.42850e-17
6135.99634 1.46932e-17
6136.99624 1.46927e-17
6137.99614 1.46520e-17
6138.99604 1.46916e-17
6139.99594 1.46509e-17
6140.99584 1.46504e-17
6141.99574 1.46499e-17
6142.99564 1.46493e-17
6143.99554 1.42702e-17
6144.99544 1.33064e-17
6145.99534 1.27999e-17
6146.99524 1.28761e-17
6147.99514 1.27990e-17
6149.00504 1.27986e-17
6150.00494 1.27981e-17
6151.00484 1.27976e-17
6152.00474 1.27972e-17
6153.00464 1.27967e-17
6154.00454 1.27070e-17
6155.00444 1.26297e-17
6156.00434 1.27061e-17
6157.00424 1.27652e-17
6158.00414 1.27944e-17
6159.00404 1.28705e-17
6160.00394 1.30081e-17
6161.00384 1.34243e-17
6162.00374 1.37973e-17
6163.00364 1.37968e-17
6164.00354 1.37963e-17
6165.00344 1.37139e-17
6166.00334 1.37134e-17
6167.00324 1.37129e-17
6168.00314 1.36526e-17
6169.00304 1.27470e-17
6170.00294 1.26997e-17
6171.00284 1.26225e-17
6172.00274 1.20535e-17
6173.00264 1.27452e-17
6174.00254 1.27447e-17
6175.00244 1.27443e-17
6176.00234 1.27438e-17
6177.00224 1.27434e-17
6178.00214 1.27429e-17
6179.00204 1.27424e-17
6180.00194 1.27420e-17
6181.00184 1.20497e-17
6182.00174 1.27619e-17
6183.00164 1.27713e-17
6184.00154 1.33494e-17
6185.00144 1.33489e-17
6186.00134 1.33676e-17
6187.00124 1.33671e-17
6188.00114 1.33674e-17
6189.00104 1.34691e-17
6190.00094 1.35501e-17
6191.00084 1.34682e-17
6192.00074 1.35491e-17
6193.00064 1.35487e-17
6194.00054 1.37715e-17
6195.00044 1.37711e-17
6196.00034 1.41997e-17
6197.00024 1.42389e-17
6198.00014 1.42891e-17
6199.00004 1.43089e-17
6199.99994 1.45184e-17
6200.99984 1.54013e-17
6201.99974 1.57047e-17
6202.99964 1.57042e-17
6203.99954 1.58206e-17
6204.99944 1.61886e-17
6205.99934 1.58403e-17
6206.99924 1.58397e-17
6207.99914 1.58392e-17
6208.99904 1.58386e-17
6209.99894 1.58381e-17
6210.99884 1.58375e-17
6211.99874 1.58162e-17
6212.99864 1.58156e-17
6213.99854 1.61716e-17
6214.99844 1.60843e-17
6215.99834 1.59619e-17
6216.99824 1.56776e-17
6217.99814 1.54401e-17
6218.99804 1.54322e-17
6219.99794 1.49619e-17
6220.99784 1.49614e-17
6221.99774 1.49609e-17
6222.99764 1.49604e-17
6223.99754 1.54296e-17
6224.99744 1.54672e-17
6225.99734 1.54667e-17
6226.99724 1.54661e-17
6227.99714 1.54432e-17
6228.99704 1.54426e-17
6229.99694 1.54264e-17
6230.99684 1.49549e-17
6231.99674 1.49013e-17
6232.99664 1.47521e-17
6233.99654 1.47516e-17
6234.99644 1.49528e-17
6235.99634 1.51608e-17
6236.99624 1.51603e-17
6237.99614 1.48133e-17
6238.99604 1.47715e-17
6239.99594 1.47052e-17
6240.99584 1.47047e-17
6241.99574 1.45442e-17
6242.99564 1.44742e-17
6243.99554 1.44348e-17
6244.99544 1.44732e-17
6245.99534 1.45335e-17
6246.99524 1.46436e-17
6247.99514 1.47092e-17
6248.99504 1.46426e-17
6249.99494 1.47082e-17
6251.00484 1.46416e-17
6252.00474 1.45341e-17
6253.00464 1.43668e-17
6254.00454 1.41513e-17
6255.00444 1.41360e-17
6256.00434 1.41355e-17
6257.00424 1.39931e-17
6258.00414 1.39926e-17
6259.00404 1.38521e-17
6260.00394 1.37989e-17
6261.00384 1.30097e-17
6262.00374 1.30092e-17
6263.00364 1.29029e-17
6264.00354 1.28328e-17
6265.00344 1.24389e-17
6266.00334 1.24385e-17
6267.00324 1.24381e-17
6268.00314 1.22763e-17
6269.00304 1.22758e-17
6270.00294 1.22754e-17
6271.00284 1.22750e-17
6272.00274 1.24360e-17
6273.00264 1.25604e-17
6274.00254 1.24351e-17
6275.00244 1.22734e-17
6276.00234 1.22729e-17
6277.00224 1.20370e-17
6278.00214 1.20366e-17
6279.00204 1.21225e-17
6280.00194 1.22713e-17
6281.00184 1.23310e-17
6282.00174 1.25566e-17
6283.00164 1.26942e-17
6284.00154 1.29368e-17
6285.00144 1.32869e-17
6286.00134 1.33514e-17
6287.00124 1.39131e-17
6288.00114 1.39501e-17
6289.00104 1.39496e-17
6290.00094 1.39491e-17
6291.00084 1.40332e-17
6292.00074 1.43912e-17
6293.00064 1.42210e-17
6294.00054 1.42205e-17
6295.00044 1.43897e-17
6296.00034 1.43966e-17
6297.00024 1.46058e-17
6298.00014 1.46053e-17
6299.00004 1.54108e-17
6299.99994 1.54103e-17
6300.99984 1.55284e-17
6301.99974 1.55279e-17
6302.99964 1.49563e-17
6303.99954 1.49558e-17
6304.99944 1.54077e-17
6305.99934 1.57214e-17
6306.99924 1.57208e-17
6307.99914 1.57377e-17
6308.99904 1.57372e-17
6309.99894 1.57367e-17
6310.99884 1.57362e-17
6311.99874 1.57356e-17
6312.99864 1.51670e-17
6313.99854 1.49508e-17
6314.99844 1.48531e-17
6315.99834 1.45590e-17
6316.99824 1.45057e-17
6317.99814 1.39244e-17
6318.99804 1.39239e-17
6319.99794 1.38235e-17
6320.99784 1.37899e-17
6321.99774 1.37398e-17
6322.99764 1.34086e-17
6323.99754 1.31251e-17
6324.99744 1.28249e-17
6325.99734 1.28150e-17
6326.99724 1.27191e-17
6327.99714 1.19927e-17
6328.99704 1.18638e-17
6329.99694 1.18634e-17
6330.99684 1.17968e-17
6331.99674 1.13972e-17
6332.99664 1.13521e-17
6333.99654 1.13518e-17
6334.99644 1.13961e-17
6335.99634 1.13510e-17
6336.99624 1.12937e-17
6337.99614 1.11783e-17
6338.99604 1.11254e-17
6339.99594 1.11149e-17
6340.99584 1.11146e-17
6341.99574 1.10033e-17
6342.99564 1.09668e-17
6343.99554 1.09664e-17
6344.99544 1.09661e-17
6345.99534 1.09657e-17
6346.99524 1.09653e-17
6347.99514 1.06276e-17
6349.00504 1.02348e-17
6350.00494 9.82751e-18
6351.00484 9.54594e-18
6352.00474 9.54563e-18
6353.00464 9.45910e-18
6354.00454 9.38190e-18
6355.00444 9.41251e-18
6356.00434 9.41220e-18
6357.00424 9.41189e-18
6358.00414 9.41158e-18
6359.00404 9.38037e-18
6360.00394 9.38006e-18
6361.00384 9.37975e-18
6362.00374 9.24687e-18
6363.00364 9.11942e-18
6364.00354 8.52543e-18
6365.00344 8.72677e-18
6366.00334 9.11852e-18
6367.00324 9.18889e-18
6368.00314 9.24506e-18
6369.00304 9.40820e-18
6370.00294 9.54509e-18
6371.00284 9.63815e-18
6372.00274 9.63784e-18
6373.00264 9.63752e-18
6374.00254 9.63721e-18
6375.00244 9.63689e-18
6376.00234 9.83146e-18
6377.00224 1.05308e-17
6378.00214 1.09348e-17
6379.00204 1.09425e-17
6380.00194 1.09851e-17
6381.00184 1.11053e-17
6382.00174 1.11049e-17
6383.00164 1.10894e-17
6384.00154 1.11651e-17
6385.00144 1.12797e-17
6386.00134 1.13097e-17
6387.00124 1.11640e-17
6388.00114 1.11637e-17
6389.00104 1.11633e-17
6390.00094 1.14018e-17
6391.00084 1.15841e-17
6392.00074 1.16780e-17
6393.00064 1.16961e-17
6394.00054 1.16957e-17
6395.00044 1.17609e-17
6396.00034 1.17874e-17
6397.00024 1.17870e-17
6398.00014 1.18862e-17
6399.00004 1.18859e-17
6399.99994 1.27179e-17
6400.99984 1.27402e-17
6401.99974 1.28035e-17
6402.99964 1.31563e-17
6403.99954 1.33684e-17
6404.99944 1.35222e-17
6405.99934 1.35218e-17
6406.99924 1.42310e-17
6407.99914 1.53781e-17
6408.99904 1.60916e-17
6409.99894 1.66185e-17
6410.99884 1.73203e-17
6411.99874 1.82065e-17
6412.99864 1.91762e-17
6413.99854 2.00566e-17
6414.99844 2.01757e-17
6415.99834 2.03626e-17
6416.99824 2.05322e-17
6417.99814 2.06785e-17
6418.99804 2.06778e-17
6419.99794 2.08949e-17
6420.99784 2.13797e-17
6421.99774 2.13858e-17
6422.99764 2.13851e-17
6423.99754 2.28186e-17
6424.99744 2.30750e-17
6425.99734 2.30742e-17
6426.99724 2.35019e-17
6427.99714 2.35600e-17
6428.99704 2.36055e-17
6429.99694 2.37551e-17
6430.99684 2.37988e-17
6431.99674 2.40429e-17
6432.99664 2.39036e-17
6433.99654 2.39028e-17
6434.99644 2.39021e-17
6435.99634 2.37950e-17
6436.99624 2.39005e-17
6437.99614 2.40383e-17
6438.99604 2.42370e-17
6439.99594 2.43217e-17
6440.99584 2.43209e-17
6441.99574 2.43201e-17
6442.99564 2.42339e-17
6443.99554 2.43186e-17
6444.99544 2.43178e-17
6445.99534 2.43170e-17
6447.00523 2.43163e-17
6448.00513 2.48794e-17
6449.00504 2.53536e-17
6450.00493 2.54760e-17
6451.00483 2.60206e-17
6452.00473 2.60457e-17
6453.00463 2.60449e-17
6454.00454 2.60440e-17
6455.00443 2.60432e-17
6456.00433 2.64510e-17
6457.00423 2.66598e-17
6458.00414 2.69997e-17
6459.00403 2.69989e-17
6460.00393 2.70472e-17
6461.00383 2.72050e-17
6462.00373 2.74417e-17
6463.00364 2.76232e-17
6464.00353 2.81171e-17
6465.00343 2.85431e-17
6466.00333 2.87264e-17
6467.00324 2.87255e-17
6468.00313 2.87309e-17
6469.00303 2.87300e-17
6470.00293 2.87227e-17
6471.00283 2.87218e-17
6472.00274 2.87209e-17
6473.00263 2.87887e-17
6474.00253 2.87878e-17
6475.00243 2.87869e-17
6476.00234 2.87860e-17
6477.00223 2.87851e-17
6478.00213 2.84245e-17
6479.00203 2.83373e-17
6480.00193 2.80124e-17
6481.00184 2.79067e-17
6482.00173 2.78481e-17
6483.00163 2.79050e-17
6484.00153 2.78464e-17
6485.00144 2.77849e-17
6486.00133 2.74980e-17
6487.00123 2.77831e-17
6488.00113 2.77822e-17
6489.00103 2.74372e-17
6490.00094 2.68327e-17
6491.00083 2.68318e-17
6492.00073 2.68310e-17
6493.00063 2.70608e-17
6494.00054 2.70599e-17
6495.00043 2.70591e-17
6496.00033 2.72415e-17
6497.00023 2.72406e-17
6498.00013 2.72398e-17
6499.00004 2.67436e-17
6499.99993 2.67356e-17
6500.99983 2.66300e-17
6501.99973 2.62720e-17
6502.99964 2.62712e-17
6503.99953 2.62704e-17
6504.99943 2.62695e-17
6505.99933 2.62687e-17
6506.99923 2.62679e-17
6507.99914 2.60690e-17
6508.99903 2.57819e-17
6509.99893 2.56904e-17
6510.99883 2.55367e-17
6511.99874 2.49422e-17
6512.99863 2.47742e-17
6513.99853 2.42334e-17
6514.99843 2.41866e-17
6515.99833 2.33423e-17
6516.99824 2.30249e-17
6517.99813 2.30242e-17
6518.99803 2.29986e-17
6519.99793 2.26274e-17
6520.99784 2.21011e-17
6521.99773 2.18856e-17
6522.99763 2.13252e-17
6523.99753 2.11130e-17
6524.99743 2.08529e-17
6525.99734 2.05128e-17
6526.99723 1.95543e-17
6527.99713 1.99563e-17
6528.99703 1.95795e-17
6529.99694 1.95525e-17
6530.99683 1.93355e-17
6531.99673 1.92435e-17
6532.99663 1.92429e-17
6533.99653 1.92423e-17
6534.99644 1.86880e-17
6535.99633 1.85074e-17
6536.99623 1.84952e-17
6537.99613 1.83550e-17
6538.99604 1.83544e-17
6539.99593 1.83538e-17
6540.99583 1.83532e-17
6541.99573 1.83527e-17
6542.99563 1.83245e-17
6543.99554 1.83694e-17
6544.99543 1.83234e-17
6545.99533 1.76108e-17
6546.99523 1.74963e-17
6547.99514 1.74958e-17
6549.00503 1.74952e-17
6550.00493 1.74947e-17
6551.00483 1.73109e-17
6552.00473 1.73104e-17
6553.00463 1.73098e-17
6554.00453 1.74925e-17
6555.00443 1.74919e-17
6556.00433 1.73760e-17
6557.00423 1.73755e-17
6558.00413 1.74903e-17
6559.00403 1.76243e-17
6560.00393 1.76238e-17
6561.00383 1.76232e-17
6562.00373 1.83748e-17
6563.00363 1.88803e-17
6564.00353 1.93617e-17
6565.00343 1.93611e-17
6566.00333 1.93605e-17
6567.00323 1.89019e-17
6568.00313 1.89013e-17
6569.00303 1.89008e-17
6570.00293 1.93581e-17
6571.00283 1.95034e-17
6572.00273 2.04668e-17
6573.00263 2.04662e-17
6574.00253 2.04656e-17
6575.00243 2.04649e-17
6576.00233 1.98515e-17
6577.00223 1.98509e-17
6578.00213 1.98503e-17
6579.00203 1.98497e-17
6580.00193 1.98490e-17
6581.00183 2.08614e-17
6582.00173 2.09030e-17
6583.00163 2.12240e-17
6584.00153 2.19897e-17
6585.00143 2.20088e-17
6586.00133 2.19883e-17
6587.00123 2.27162e-17
6588.00113 2.47550e-17
6589.00103 2.53711e-17
6590.00093 2.54853e-17
6591.00083 2.57416e-17
6592.00073 2.57671e-17
6593.00063 2.58005e-17
6594.00053 2.58438e-17
6595.00043 2.58798e-17
6596.00033 2.59307e-17
6597.00023 2.59299e-17
6598.00013 2.69253e-17
6599.00003 2.78929e-17
6599.99993 2.85517e-17
6600.99983 2.89929e-17
6601.99973 2.90204e-17
6602.99963 2.90646e-17
6603.99953 2.90186e-17
6604.99943 2.90177e-17
6605.99933 2.90168e-17
6606.99923 2.90610e-17
6607.99913 2.91414e-17
6608.99903 2.92094e-17
6609.99893 2.98762e-17
6610.99883 3.01001e-17
6611.99873 3.00991e-17
6612.99863 3.00982e-17
6613.99853 2.98726e-17
6614.99843 2.92294e-17
6615.99833 2.91342e-17
6616.99823 2.88864e-17
6617.99813 2.88855e-17
6618.99803 2.88846e-17
6619.99793 2.92249e-17
6620.99783 2.93223e-17
6621.99773 2.93214e-17
6622.99763 2.93205e-17
6623.99753 2.93196e-17
6624.99743 2.93187e-17
6625.99733 2.92195e-17
6626.99723 2.92186e-17
6627.99713 2.90839e-17
6628.99703 2.90830e-17
6629.99693 2.88748e-17
6630.99683 2.90812e-17
6631.99673 2.90803e-17
6632.99663 2.90868e-17
6633.99653 2.93106e-17
6634.99643 2.93097e-17
6635.99633 2.94527e-17
6636.99623 3.02276e-17
6637.99613 3.02267e-17
6638.99603 3.02257e-17
6639.99593 2.94491e-17
6640.99583 2.91828e-17
6641.99573 2.91819e-17
6642.99563 2.91810e-17
6643.99553 2.91801e-17
6644.99543 3.04705e-17
6645.99533 3.12664e-17
6647.00523 3.12654e-17
6648.00513 3.12644e-17
6649.00503 3.12635e-17
6650.00493 3.02091e-17
6651.00483 2.91738e-17
6652.00473 2.88366e-17
6653.00463 2.76576e-17
6654.00453 2.76524e-17
6655.00443 2.76516e-17
6656.00433 2.76550e-17
6657.00423 2.79152e-17
6658.00413 2.79143e-17
6659.00403 2.76525e-17
6660.00393 2.75978e-17
6661.00383 2.75969e-17
6662.00373 2.75961e-17
6663.00363 2.70843e-17
6664.00353 2.69854e-17
6665.00343 2.69845e-17
6666.00333 2.70818e-17
6667.00323 2.75208e-17
6668.00313 2.75199e-17
6669.00303 2.75902e-17
6670.00293 2.75893e-17
6671.00283 2.79032e-17
6672.00273 2.75876e-17
6673.00263 2.75157e-17
6674.00253 2.69771e-17
6675.00243 2.69763e-17
6676.00233 2.72140e-17
6677.00223 2.72132e-17
6678.00213 2.72124e-17
6679.00203 2.75625e-17
6680.00193 2.75621e-17
6681.00183 2.79126e-17
6682.00173 2.75881e-17
6683.00163 2.75595e-17
6684.00153 2.75583e-17
6685.00143 2.70600e-17
6686.00133 2.67475e-17
6687.00123 2.66853e-17
6688.00113 2.66844e-17
6689.00103 2.66836e-17
6690.00093 2.66828e-17
6691.00083 2.66820e-17
6692.00073 2.63788e-17
6693.00063 2.61333e-17
6694.00053 2.59496e-17
6695.00043 2.58313e-17
6696.00033 2.59480e-17
6697.00023 2.58208e-17
6698.00013 2.58289e-17
6699.00003 2.58252e-17
6699.99993 2.58184e-17
6700.99983 2.56568e-17
6701.99973 2.56047e-17
6702.99963 2.50538e-17
6703.99953 2.49460e-17
6704.99943 2.48864e-17
6705.99933 2.47558e-17
6706.99923 2.47550e-17
6707.99913 2.47034e-17
6708.99903 2.46925e-17
6709.99893 2.46917e-17
6710.99883 2.43409e-17
6711.99873 2.43059e-17
6712.99863 2.42194e-17
6713.99853 2.41983e-17
6714.99843 2.41975e-17
6715.99833 2.40878e-17
6716.99823 2.38749e-17
6717.99813 2.31407e-17
6718.99803 2.23651e-17
6719.99793 2.17253e-17
6720.99783 2.11803e-17
6721.99773 2.11659e-17
6722.99763 2.11652e-17
6723.99753 2.11218e-17
6724.99743 2.09036e-17
6725.99733 2.09030e-17
6726.99723 2.09023e-17
6727.99713 2.10869e-17
6728.99703 2.10853e-17
6729.99693 2.09004e-17
6730.99683 2.08687e-17
6731.99673 2.08680e-17
6732.99663 2.05519e-17
6733.99653 2.03850e-17
6734.99643 1.98515e-17
6735.99633 1.97461e-17
6736.99623 1.96754e-17
6737.99613 1.95148e-17
6738.99603 1.95142e-17
6739.99593 1.98485e-17
6740.99583 2.05388e-17
6741.99573 2.05382e-17
6742.99563 2.05376e-17
6743.99553 2.05369e-17
6744.99543 2.02507e-17
6745.99533 1.99559e-17
6746.99523 1.98442e-17
6747.99513 1.99546e-17
6749.00503 1.99617e-17
6750.00493 2.02476e-17
6751.00483 2.02871e-17
6752.00473 2.02865e-17
6753.00463 2.08580e-17
6754.00453 2.08573e-17
6755.00443 2.08567e-17
6756.00433 2.02439e-17
6757.00423 1.99568e-17
6758.00413 1.99485e-17
6759.00403 1.95134e-17
6760.00393 1.84866e-17
6761.00383 1.83836e-17
6762.00373 1.83831e-17
6763.00363 1.79915e-17
6764.00353 1.75026e-17
6765.00343 1.75021e-17
6766.00333 1.73386e-17
6767.00323 1.72658e-17
6768.00313 1.72094e-17
6769.00303 1.72089e-17
6770.00293 1.72083e-17
6771.00283 1.70338e-17
6772.00273 1.70333e-17
6773.00263 1.69731e-17
6774.00253 1.69726e-17
6775.00243 1.70317e-17
6776.00233 1.69715e-17
6777.00223 1.69710e-17
6778.00213 1.69705e-17
6779.00203 1.69700e-17
6780.00193 1.61487e-17
6781.00183 1.61482e-17
6782.00173 1.60121e-17
6783.00163 1.58945e-17
6784.00153 1.54625e-17
6785.00143 1.46241e-17
6786.00133 1.45950e-17
6787.00123 1.40729e-17
6788.00113 1.40203e-17
6789.00103 1.37462e-17
6790.00093 1.35213e-17
6791.00083 1.37453e-17
6792.00073 1.37449e-17
6793.00063 1.37445e-17
6794.00053 1.37441e-17
6795.00043 1.37437e-17
6796.00033 1.37432e-17
6797.00023 1.37428e-17
6798.00013 1.37424e-17
6799.00003 1.35176e-17
6799.99993 1.35017e-17
6800.99983 1.35013e-17
6801.99973 1.34379e-17
6802.99963 1.34375e-17
6803.99953 1.34371e-17
6804.99943 1.34366e-17
6805.99933 1.34362e-17
6806.99923 1.34358e-17
6807.99913 1.36906e-17
6808.99903 1.36902e-17
6809.99893 1.36897e-17
6810.99883 1.36893e-17
6811.99873 1.34338e-17
6812.99863 1.32645e-17
6813.99853 1.32306e-17
6814.99843 1.30459e-17
6815.99833 1.27915e-17
6816.99823 1.26897e-17
6817.99813 1.26362e-17
6818.99803 1.26031e-17
6819.99793 1.24800e-17
6820.99783 1.24375e-17
6821.99773 1.26020e-17
6822.99763 1.24367e-17
6823.99753 1.22920e-17
6824.99743 1.22917e-17
6825.99733 1.22589e-17
6826.99723 1.22585e-17
6827.99713 1.22581e-17
6828.99703 1.22577e-17
6829.99693 1.22405e-17
6830.99683 1.20384e-17
6831.99673 1.19423e-17
6832.99663 1.19420e-17
6833.99653 1.19052e-17
6834.99643 1.18286e-17
6835.99633 1.16774e-17
6836.99623 1.14720e-17
6837.99613 1.14717e-17
6838.99603 1.14223e-17
6839.99593 1.13318e-17
6840.99583 1.13314e-17
6841.99573 1.13906e-17
6842.99563 1.13307e-17
6843.99553 1.11962e-17
6844.99543 1.10849e-17
6845.99533 1.10366e-17
6847.00523 1.06858e-17
6848.00513 1.05256e-17
6849.00503 1.05244e-17
6850.00493 1.04197e-17
6851.00483 1.04068e-17
6852.00473 1.02048e-17
6853.00463 1.01744e-17
6854.00453 1.01611e-17
6855.00443 1.00873e-17
6856.00433 1.01605e-17
6857.00423 1.01602e-17
6858.00413 1.00864e-17
6859.00403 1.00789e-17
6860.00393 1.00667e-17
6861.00383 9.97678e-18
6862.00373 9.68152e-18
6863.00363 9.62606e-18
6864.00353 9.27600e-18
6865.00343 9.27218e-18
6866.00333 9.22918e-18
6867.00323 8.29332e-18
6868.00313 8.24242e-18
6869.00303 8.24217e-18
6870.00293 8.22770e-18
6871.00283 8.04250e-18
6872.00273 8.00922e-18
6873.00263 7.99426e-18
6874.00253 7.94998e-18
6875.00243 7.88817e-18
6876.00233 7.78238e-18
6877.00223 7.43317e-18
6878.00213 6.98684e-18
6879.00203 6.52708e-18
6880.00193 6.06945e-18
6881.00183 6.06926e-18
6882.00173 5.99947e-18
6883.00163 5.97216e-18
6884.00153 5.97198e-18
6885.00143 5.80366e-18
6886.00133 5.80348e-18
6887.00123 5.97143e-18
6888.00113 5.97124e-18
6889.00103 5.87723e-18
6890.00093 5.81308e-18
6891.00083 5.83103e-18
6892.00073 5.83085e-18
6893.00063 5.87650e-18
6894.00053 5.87632e-18
6895.00043 5.87614e-18
6896.00033 5.91695e-18
6897.00023 6.11644e-18
6898.00013 6.20215e-18
6899.00003 6.22234e-18
6899.99993 6.23156e-18
6900.99983 6.23137e-18
6901.99973 6.23118e-18
6902.99963 6.23099e-18
6903.99953 6.22138e-18
6904.99943 6.23060e-18
6905.99933 6.42578e-18
6906.99923 6.89690e-18
6907.99913 7.44519e-18
6908.99903 7.81581e-18
6909.99893 7.98623e-18
6910.99883 8.17925e-18
6911.99873 8.62593e-18
6912.99863 8.98537e-18
6913.99853 9.14094e-18
6914.99843 9.14729e-18
6915.99833 9.28531e-18
6916.99823 9.41131e-18
6917.99813 9.53939e-18
6918.99803 9.53910e-18
6919.99793 9.53880e-18
6920.99783 9.60720e-18
6921.99773 9.53821e-18
6922.99763 9.53792e-18
6923.99753 9.53762e-18
6924.99743 9.53733e-18
6925.99733 9.75368e-18
6926.99723 9.75912e-18
6927.99713 9.84232e-18
6928.99703 9.84201e-18
6929.99693 9.87040e-18
6930.99683 1.04072e-17
6931.99673 1.12761e-17
6932.99663 1.19062e-17
6933.99653 1.22401e-17
6934.99643 1.25378e-17
6935.99633 1.26953e-17
6936.99623 1.26949e-17
6937.99613 1.30267e-17
6938.99603 1.31170e-17
6939.99593 1.34784e-17
6940.99583 1.43934e-17
6941.99573 1.47930e-17
6942.99563 1.48279e-17
6943.99553 1.60411e-17
6944.99543 1.60802e-17
6945.99533 1.60797e-17
6946.99523 1.60792e-17
6947.99513 1.65124e-17
6949.00503 1.65155e-17
6950.00493 1.66579e-17
6951.00483 1.76721e-17
6952.00473 1.79040e-17
6953.00463 1.80934e-17
6954.00453 1.82457e-17
6955.00443 1.85332e-17
6956.00433 1.85891e-17
6957.00423 1.85885e-17
6958.00413 1.87131e-17
6959.00403 1.89193e-17
6960.00393 1.91701e-17
6961.00383 1.95909e-17
6962.00373 1.97053e-17
6963.00363 1.97362e-17
6964.00353 1.97356e-17
6965.00343 1.97883e-17
6966.00333 1.99003e-17
6967.00323 1.97871e-17
6968.00313 1.97865e-17
6969.00303 1.98984e-17
6970.00293 2.03841e-17
6971.00283 2.05664e-17
6972.00273 2.10814e-17
6973.00263 2.13032e-17
6974.00253 2.14342e-17
6975.00243 2.15617e-17
6976.00233 2.16272e-17
6977.00223 2.16594e-17
6978.00213 2.14644e-17
6979.00203 2.14637e-17
6980.00193 2.15583e-17
6981.00183 2.16567e-17
6982.00173 2.16720e-17
6983.00163 2.17841e-17
6984.00153 2.18214e-17
6985.00143 2.20909e-17
6986.00133 2.21743e-17
6987.00123 2.22939e-17
6988.00113 2.22932e-17
6989.00103 2.24814e-17
6990.00093 2.30205e-17
6991.00083 2.32223e-17
6992.00073 2.34259e-17
6993.00063 2.41148e-17
6994.00053 2.54369e-17
6995.00043 2.61610e-17
6996.00033 2.63049e-17
6997.00023 2.64251e-17
6998.00013 2.68672e-17
6999.00003 2.69268e-17
6999.99993 2.71835e-17
7000.99983 2.71826e-17
7001.99973 2.71818e-17
7002.99963 2.74257e-17
7003.99953 2.74248e-17
7004.99943 2.71792e-17
7005.99933 2.71784e-17
7006.99923 2.71776e-17
7007.99913 2.74214e-17
7008.99903 2.78733e-17
7009.99893 2.82604e-17
7010.99883 2.84696e-17
7011.99873 2.82587e-17
7012.99863 2.82578e-17
7013.99853 2.78690e-17
7014.99843 2.74154e-17
7015.99833 2.67404e-17
7016.99823 2.67396e-17
7017.99813 2.67387e-17
7018.99803 2.72009e-17
7019.99793 2.78051e-17
7020.99783 2.78042e-17
7021.99773 2.74776e-17
7022.99763 2.71975e-17
7023.99753 2.71920e-17
7024.99743 2.71911e-17
7025.99733 2.71794e-17
7026.99723 2.64172e-17
7027.99713 2.63846e-17
7028.99703 2.63838e-17
7029.99693 2.63829e-17
7030.99683 2.63821e-17
7031.99673 2.63813e-17
7032.99663 2.63805e-17
7033.99653 2.63796e-17
7034.99643 2.55869e-17
7035.99633 2.60009e-17
7036.99623 2.60001e-17
7037.99613 2.59993e-17
7038.99603 2.59985e-17
7039.99593 2.59976e-17
7040.99583 2.59968e-17
7041.99573 2.58369e-17
7042.99563 2.55805e-17
7043.99553 2.54701e-17
7044.99543 2.54693e-17
7045.99533 2.58337e-17
7047.00523 2.58328e-17
7048.00513 2.58320e-17
7049.00503 2.58312e-17
7050.00493 2.59895e-17
7051.00483 2.59887e-17
7052.00473 2.58288e-17
7053.00463 2.54629e-17
7054.00453 2.50006e-17
7055.00443 2.40914e-17
7056.00433 2.40906e-17
7057.00423 2.39104e-17
7058.00413 2.38559e-17
7059.00403 2.36460e-17
7060.00393 2.31398e-17
7061.00383 2.26623e-17
7062.00373 2.20909e-17
7063.00363 2.18795e-17
7064.00353 2.15647e-17
7065.00343 2.08245e-17
7066.00333 1.96702e-17
7067.00323 1.96696e-17
7068.00313 1.94063e-17
7069.00303 1.93281e-17
7070.00293 1.93275e-17
7071.00283 1.93269e-17
7072.00273 1.88982e-17
7073.00263 1.88976e-17
7074.00253 1.88970e-17
7075.00243 1.93244e-17
7076.00233 1.94014e-17
7077.00223 1.95920e-17
7078.00213 1.94002e-17
7079.00203 1.93995e-17
7080.00193 1.93989e-17
7081.00183 1.93983e-17
7082.00173 1.91964e-17
7083.00163 1.88916e-17
7084.00153 1.88910e-17
7085.00143 1.88904e-17
7086.00133 1.88715e-17
7087.00123 1.88709e-17
7088.00113 1.86670e-17
7089.00103 1.82390e-17
7090.00093 1.82384e-17
7091.00083 1.81540e-17
7092.00073 1.81325e-17
7093.00063 1.81319e-17
7094.00053 1.79509e-17
7095.00043 1.79346e-17
7096.00033 1.78543e-17
7097.00023 1.78538e-17
7098.00013 1.78497e-17
7099.00003 1.76955e-17
7099.99993 1.72903e-17
7100.99983 1.71328e-17
7101.99973 1.71002e-17
7102.99963 1.69407e-17
7103.99953 1.65373e-17
7104.99943 1.60066e-17
7105.99933 1.62243e-17
7106.99923 1.62238e-17
7107.99913 1.62233e-17
7108.99903 1.62228e-17
7109.99893 1.60606e-17
7110.99883 1.60035e-17
7111.99873 1.59696e-17
7112.99863 1.55479e-17
7113.99853 1.54536e-17
7114.99843 1.51612e-17
7115.99833 1.48484e-17
7116.99823 1.48479e-17
7117.99813 1.48474e-17
7118.99803 1.48470e-17
7119.99793 1.47803e-17
7120.99783 1.45950e-17
7121.99773 1.44197e-17
7122.99763 1.40215e-17
7123.99753 1.35626e-17
7124.99743 1.35621e-17
7125.99733 1.34690e-17
7126.99723 1.33615e-17
7127.99713 1.29419e-17
7128.99703 1.29415e-17
7129.99693 1.28507e-17
7130.99683 1.28503e-17
7131.99673 1.28499e-17
7132.99663 1.29398e-17
7133.99653 1.29394e-17
7134.99643 1.29746e-17
7135.99633 1.30478e-17
7136.99623 1.30474e-17
7137.99613 1.31844e-17
7138.99603 1.33815e-17
7139.99593 1.35557e-17
7140.99583 1.38978e-17
7141.99573 1.41740e-17
7142.99563 1.43835e-17
7143.99553 1.46003e-17
7144.99543 1.45998e-17
7145.99533 1.46103e-17
7146.99523 1.46098e-17
7147.99513 1.51651e-17
7149.00503 1.53868e-17
7150.00493 1.54623e-17
7151.00483 1.54618e-17
7152.00473 1.61722e-17
7153.00463 1.61717e-17
7154.00453 1.61916e-17
7155.00443 1.61707e-17
7156.00433 1.61702e-17
7157.00423 1.61697e-17
7158.00413 1.61691e-17
7159.00403 1.61686e-17
7160.00393 1.61681e-17
7161.00383 1.61880e-17
7162.00373 1.61875e-17
7163.00363 1.62520e-17
7164.00353 1.63434e-17
7165.00343 1.62510e-17
7166.00333 1.60274e-17
7167.00323 1.60269e-17
7168.00313 1.59515e-17
7169.00303 1.59510e-17
7170.00293 1.60254e-17
7171.00283 1.62392e-17
7172.00273 1.62473e-17
7173.00263 1.66472e-17
7174.00253 1.66467e-17
7175.00243 1.66461e-17
7176.00233 1.66456e-17
7177.00223 1.66588e-17
7178.00213 1.66706e-17
7179.00203 1.66700e-17
7180.00193 1.69165e-17
7181.00183 1.69159e-17
7182.00173 1.70118e-17
7183.00163 1.70112e-17
7184.00153 1.70234e-17
7185.00143 1.70229e-17
7186.00133 1.70223e-17
7187.00123 1.70218e-17
7188.00113 1.70212e-17
7189.00103 1.72762e-17
7190.00093 1.76442e-17
7191.00083 1.76436e-17
7192.00073 1.77525e-17
7193.00063 1.77519e-17
7194.00053 1.79035e-17
7195.00043 1.79271e-17
7196.00033 1.79265e-17
7197.00023 1.80085e-17
7198.00013 1.85921e-17
7199.00003 1.86373e-17
7199.99993 1.89528e-17
7200.99983 1.89737e-17
7201.99973 1.89731e-17
7202.99963 1.92746e-17
7203.99953 1.98970e-17
7204.99943 2.03972e-17
7205.99933 2.03966e-17
7206.99923 2.03959e-17
7207.99913 2.03953e-17
7208.99903 2.03946e-17
