# wavelength flux
3890.00096 1.45589e-17
3891.00086 1.45580e-17
3892.00076 1.44043e-17
3893.00066 1.45561e-17
3894.00056 1.44659e-17
3895.00046 1.44650e-17
3896.00036 1.44641e-17
3897.00026 1.45523e-17
3898.00016 1.44622e-17
3899.00006 1.47366e-17
3899.99996 1.44603e-17
3900.99986 1.25387e-17
3901.99976 1.00045e-17
3902.99966 9.68155e-18
3903.99956 9.68094e-18
3904.99946 9.68032e-18
3905.99936 1.05664e-17
3906.99926 1.07718e-17
3907.99916 1.07711e-17
3908.99906 1.07704e-17
3909.99896 1.07697e-17
3910.99886 1.08262e-17
3911.99876 1.08256e-17
3912.99866 1.14865e-17
3913.99856 1.14356e-17
3914.99846 1.14348e-17
3915.99836 1.11887e-17
3916.99826 1.14334e-17
3917.99816 1.05411e-17
3918.99806 9.62580e-18
3919.99796 8.57336e-18
3920.99786 9.51316e-18
3921.99776 9.51257e-18
3922.99766 8.57175e-18
3923.99756 7.90777e-18
3924.99746 7.90728e-18
3925.99736 7.75756e-18
3926.99726 7.41036e-18
3927.99716 7.40990e-18
3928.99706 7.40944e-18
3929.99696 7.00248e-18
3930.99686 6.96227e-18
3931.99676 6.96184e-18
3932.99666 7.00118e-18
3933.99656 7.00074e-18
3934.99646 7.01742e-18
3935.99636 7.01698e-18
3936.99626 6.99945e-18
3937.99616 7.01612e-18
3938.99606 8.54688e-18
3939.99596 8.54635e-18
3940.99586 8.20946e-18
3941.99576 8.48183e-18
3942.99566 8.48131e-18
3943.99556 8.48079e-18
3944.99546 9.60730e-18
3945.99536 9.94107e-18
3946.99526 9.94047e-18
3948.00516 9.60554e-18
3949.00506 9.93925e-18
3950.00496 9.93865e-18
3951.00486 9.93804e-18
3952.00476 1.00171e-17
3953.00466 1.04350e-17
3954.00456 1.04344e-17
3955.00446 1.07678e-17
3956.00436 1.11535e-17
3957.00426 1.10247e-17
3958.00416 1.00134e-17
3959.00406 1.00128e-17
3960.00396 9.44558e-18
3961.00386 9.07341e-18
3962.00376 7.91786e-18
3963.00366 7.91738e-18
3964.00356 7.25761e-18
3965.00346 6.51911e-18
3966.00336 6.91600e-18
3967.00326 6.79705e-18
3968.00316 6.79664e-18
3969.00306 6.79623e-18
3970.00296 6.79582e-18
3971.00286 6.51676e-18
3972.00276 6.91351e-18
3973.00266 6.91310e-18
3974.00256 7.40403e-18
3975.00246 7.57294e-18
3976.00236 7.57249e-18
3977.00226 8.43241e-18
3978.00216 8.43190e-18
3979.00206 8.43140e-18
3980.00196 8.70325e-18
3981.00186 9.38106e-18
3982.00176 9.93640e-18
3983.00166 9.93580e-18
3984.00156 9.94012e-18
3985.00146 9.93953e-18
3986.00136 9.37827e-18
3987.00126 9.37772e-18
3988.00116 9.93776e-18
3989.00106 9.93717e-18
3990.00096 1.05705e-17
3991.00086 1.07703e-17
3992.00076 9.93540e-18
3993.00066 9.65324e-18
3994.00056 9.65267e-18
3995.00046 9.65210e-18
3996.00036 1.04379e-17
3997.00026 1.05661e-17
3998.00016 1.10939e-17
3999.00006 1.10932e-17
3999.99996 1.10926e-17
4000.99986 1.04348e-17
4001.99976 1.13331e-17
4002.99966 1.13324e-17
4003.99956 1.13317e-17
4004.99946 1.18308e-17
4005.99936 1.18879e-17
4006.99926 1.21146e-17
4007.99916 1.28058e-17
4008.99906 1.28050e-17
4009.99896 1.28043e-17
4010.99886 1.21841e-17
4011.99876 1.18838e-17
4012.99866 1.18253e-17
4013.99856 1.18824e-17
4014.99846 1.19670e-17
4015.99836 1.19858e-17
4016.99826 1.19656e-17
4017.99816 1.16671e-17
4018.99806 1.02701e-17
4019.99796 1.02695e-17
4020.99786 1.07069e-17
4021.99776 1.07062e-17
4022.99766 1.19614e-17
4023.99756 1.19802e-17
4024.99746 1.19795e-17
4025.99736 1.37825e-17
4026.99726 1.37817e-17
4027.99716 1.37809e-17
4028.99706 1.37801e-17
4029.99696 1.37793e-17
4030.99686 1.32756e-17
4031.99676 1.15966e-17
4032.99666 1.09415e-17
4033.99656 1.15720e-17
4034.99646 1.15713e-17
4035.99636 1.15707e-17
4036.99626 1.15660e-17
4037.99616 1.09384e-17
4038.99606 1.08965e-17
4039.99596 1.09371e-17
4040.99586 1.08952e-17
4041.99576 1.08946e-17
4042.99566 1.15660e-17
4043.99556 1.15653e-17
4044.99546 1.16251e-17
4045.99536 1.22720e-17
4046.99526 1.22713e-17
4048.00516 1.16231e-17
4049.00506 1.16224e-17
4050.00496 1.10229e-17
4051.00486 1.10223e-17
4052.00476 1.23220e-17
4053.00466 1.24941e-17
4054.00456 1.23502e-17
4055.00446 1.23495e-17
4056.00436 1.23191e-17
4057.00426 1.23481e-17
4058.00416 1.23177e-17
4059.00406 1.24898e-17
4060.00396 1.24891e-17
4061.00386 1.24467e-17
4062.00376 1.23617e-17
4063.00366 1.23610e-17
4064.00356 1.20385e-17
4065.00346 1.24438e-17
4066.00336 1.27290e-17
4067.00326 1.27283e-17
4068.00316 1.27275e-17
4069.00306 1.27268e-17
4070.00296 1.20704e-17
4071.00286 1.21541e-17
4072.00276 1.23545e-17
4073.00266 1.24916e-17
4074.00256 1.24909e-17
4075.00246 1.26651e-17
4076.00236 1.26644e-17
4077.00226 1.24672e-17
4078.00216 1.21492e-17
4079.00206 1.22779e-17
4080.00196 1.22772e-17
4081.00186 1.21471e-17
4082.00176 1.20111e-17
4083.00166 1.20104e-17
4084.00156 1.19629e-17
4085.00146 1.20090e-17
4086.00136 1.23246e-17
4087.00126 1.22723e-17
4088.00116 1.22716e-17
4089.00106 1.22709e-17
4090.00096 1.19588e-17
4091.00086 1.17307e-17
4092.00076 1.19574e-17
4093.00066 1.17293e-17
4094.00056 1.03053e-17
4095.00046 1.10158e-17
4096.00036 1.10152e-17
4097.00026 1.10146e-17
4098.00016 1.06922e-17
4099.00006 1.06916e-17
4099.99996 1.01784e-17
4100.99986 1.01779e-17
4101.99976 1.06898e-17
4102.99966 1.09762e-17
4103.99956 1.10101e-17
4104.99946 1.10356e-17
4105.99936 1.10349e-17
4106.99926 1.10343e-17
4107.99916 1.07475e-17
4108.99906 1.09724e-17
4109.99896 1.10324e-17
4110.99886 1.10318e-17
4111.99876 1.11772e-17
4112.99866 1.12676e-17
4113.99856 1.12669e-17
4114.99846 1.11752e-17
4115.99836 1.12656e-17
4116.99826 1.12650e-17
4117.99816 1.11733e-17
4118.99806 1.12637e-17
4119.99796 1.13832e-17
4120.99786 1.12624e-17
4121.99776 1.12697e-17
4122.99766 1.14712e-17
4123.99756 1.14706e-17
4124.99746 1.17963e-17
4125.99736 1.17956e-17
4126.99726 1.17949e-17
4127.99716 1.15593e-17
4128.99706 1.15586e-17
4129.99696 1.14666e-17
4130.99686 1.14419e-17
4131.99676 1.18796e-17
4132.99666 1.20544e-17
4133.99656 1.22232e-17
4134.99646 1.22225e-17
4135.99636 1.20412e-17
4136.99626 1.15273e-17
4137.99616 1.14373e-17
4138.99606 1.12716e-17
4139.99596 1.12709e-17
4140.99586 1.12703e-17
4141.99576 1.13862e-17
4142.99566 1.13855e-17
4143.99556 1.12283e-17
4144.99546 1.12277e-17
4145.99536 1.12670e-17
4147.00526 1.12664e-17
4148.00516 1.12257e-17
4149.00506 1.13816e-17
4150.00496 1.13809e-17
4151.00486 1.14639e-17
4152.00476 1.14768e-17
4153.00466 1.23149e-17
4154.00456 1.25416e-17
4155.00446 1.25409e-17
4156.00436 1.19653e-17
4157.00426 1.16554e-17
4158.00416 1.16547e-17
4159.00406 1.16540e-17
4160.00396 1.19625e-17
4161.00386 1.16527e-17
4162.00376 1.18833e-17
4163.00366 1.18826e-17
4164.00356 1.18819e-17
4165.00346 1.16500e-17
4166.00336 1.16427e-17
4167.00326 1.14107e-17
4168.00316 1.08355e-17
4169.00306 1.05304e-17
4170.00296 1.07787e-17
4171.00286 1.07781e-17
4172.00276 1.07774e-17
4173.00266 1.07768e-17
4174.00256 1.04796e-17
4175.00246 1.04608e-17
4176.00236 1.03925e-17
4177.00226 1.03919e-17
4178.00216 1.03913e-17
4179.00206 1.04584e-17
4180.00196 1.02869e-17
4181.00186 1.03895e-17
4182.00176 1.03889e-17
4183.00166 1.02851e-17
4184.00156 1.00092e-17
4185.00146 9.46814e-18
4186.00136 9.46759e-18
4187.00126 9.46703e-18
4188.00116 1.00069e-17
4189.00106 1.00063e-17
4190.00096 1.00057e-17
4191.00086 1.05966e-17
4192.00076 1.08079e-17
4193.00066 1.08073e-17
4194.00056 1.14545e-17
4195.00046 1.08060e-17
4196.00036 1.06413e-17
4197.00026 1.02201e-17
4198.00016 1.02195e-17
4199.00006 1.08454e-17
4199.99996 1.09630e-17
4200.99986 1.08441e-17
4201.99976 1.05407e-17
4202.99966 1.02165e-17
4203.99956 1.02159e-17
4204.99946 1.02153e-17
4205.99936 1.05383e-17
4206.99926 1.08403e-17
4207.99916 1.09579e-17
4208.99906 1.08390e-17
4209.99896 1.15336e-17
4210.99886 1.15919e-17
4211.99876 1.15912e-17
4212.99866 1.17258e-17
4213.99856 1.15898e-17
4214.99846 1.15892e-17
4215.99836 1.08148e-17
4216.99826 1.15878e-17
4217.99816 1.15871e-17
4218.99806 1.11463e-17
4219.99796 1.08123e-17
4220.99786 1.04649e-17
4221.99776 1.04643e-17
4222.99766 1.06206e-17
4223.99756 1.06597e-17
4224.99746 1.06659e-17
4225.99736 1.11417e-17
4226.99726 1.15953e-17
4227.99716 1.15947e-17
4228.99706 1.11397e-17
4229.99696 1.15933e-17
4230.99686 1.15926e-17
4231.99676 1.18861e-17
4232.99666 1.15912e-17
4233.99656 1.18847e-17
4234.99646 1.19406e-17
4235.99636 1.25408e-17
4236.99626 1.30851e-17
4237.99616 1.30843e-17
4238.99606 1.30836e-17
4239.99596 1.30828e-17
4240.99586 1.25509e-17
4241.99576 1.31339e-17
4242.99566 1.34795e-17
4243.99556 1.34787e-17
4244.99546 1.32654e-17
4245.99536 1.32646e-17
4246.99526 1.30773e-17
4247.99516 1.25607e-17
4248.99506 1.25600e-17
4250.00496 1.25592e-17
4251.00486 1.32606e-17
4252.00476 1.34317e-17
4253.00466 1.34309e-17
4254.00456 1.34301e-17
4255.00446 1.25555e-17
4256.00436 1.25547e-17
4257.00426 1.28858e-17
4258.00416 1.28850e-17
4259.00406 1.29379e-17
4260.00396 1.34253e-17
4261.00386 1.34796e-17
4262.00376 1.32015e-17
4263.00366 1.32007e-17
4264.00356 1.28803e-17
4265.00346 1.28373e-17
4266.00336 1.28366e-17
4267.00326 1.28358e-17
4268.00316 1.16471e-17
4269.00306 1.27091e-17
4270.00296 1.27084e-17
4271.00286 1.19069e-17
4272.00276 1.19061e-17
4273.00266 1.19054e-17
4274.00256 1.12099e-17
4275.00246 1.12092e-17
4276.00236 1.22273e-17
4277.00226 1.22265e-17
4278.00216 1.22665e-17
4279.00206 1.23977e-17
4280.00196 1.26429e-17
4281.00186 1.26427e-17
4282.00176 1.26420e-17
4283.00166 1.28452e-17
4284.00156 1.28866e-17
4285.00146 1.32713e-17
4286.00136 1.33977e-17
4287.00126 1.34953e-17
4288.00116 1.34945e-17
4289.00106 1.33556e-17
4290.00096 1.28819e-17
4291.00086 1.28558e-17
4292.00076 1.28382e-17
4293.00066 1.25509e-17
4294.00056 1.23084e-17
4295.00046 1.23076e-17
4296.00036 1.21018e-17
4297.00026 1.21010e-17
4298.00016 1.20968e-17
4299.00006 1.17157e-17
4299.99996 1.15243e-17
4300.99986 1.13483e-17
4301.99976 1.13476e-17
4302.99966 1.13469e-17
4303.99956 1.15214e-17
4304.99946 1.15207e-17
4305.99936 1.16586e-17
4306.99926 1.15193e-17
4307.99916 1.15186e-17
4308.99906 1.18411e-17
4309.99896 1.23328e-17
4310.99886 1.24189e-17
4311.99876 1.24181e-17
4312.99866 1.23305e-17
4313.99856 1.20662e-17
4314.99846 1.23290e-17
4315.99836 1.23282e-17
4316.99826 1.23275e-17
4317.99816 1.24135e-17
4318.99806 1.23260e-17
4319.99796 1.22535e-17
4320.99786 1.22527e-17
4321.99776 1.22890e-17
4322.99766 1.22264e-17
4323.99756 1.22504e-17
4324.99746 1.22249e-17
4325.99736 1.21201e-17
4326.99726 1.21105e-17
4327.99716 1.17005e-17
4328.99706 1.16998e-17
4329.99696 1.13845e-17
4330.99686 1.13279e-17
4331.99676 1.13831e-17
4332.99666 1.13824e-17
4333.99656 1.13817e-17
4334.99646 1.15217e-17
4335.99636 1.15210e-17
4336.99626 1.13236e-17
4337.99616 1.15396e-17
4338.99606 1.15717e-17
4339.99596 1.15710e-17
4340.99586 1.15703e-17
4341.99576 1.15696e-17
4342.99566 1.15689e-17
4343.99556 1.13907e-17
4344.99546 1.15346e-17
4345.99536 1.15339e-17
4347.00526 1.15331e-17
4348.00516 1.15324e-17
4349.00506 1.15645e-17
4350.00496 1.13864e-17
4351.00486 1.17498e-17
4352.00476 1.27026e-17
4353.00466 1.27018e-17
4354.00456 1.34151e-17
4355.00446 1.34249e-17
4356.00436 1.34241e-17
4357.00426 1.34232e-17
4358.00416 1.34224e-17
4359.00406 1.34109e-17
4360.00396 1.26910e-17
4361.00386 1.22242e-17
4362.00376 1.22234e-17
4363.00366 1.11659e-17
4364.00356 1.10275e-17
4365.00346 1.10268e-17
4366.00336 1.10139e-17
4367.00326 1.10132e-17
4368.00316 1.08165e-17
4369.00306 1.07256e-17
4370.00296 1.07249e-17
4371.00286 1.10104e-17
4372.00276 1.10097e-17
4373.00266 1.12091e-17
4374.00256 1.10205e-17
4375.00246 1.11423e-17
4376.00236 1.11416e-17
4377.00226 1.12062e-17
4378.00216 1.12055e-17
4379.00206 1.16625e-17
4380.00196 1.16617e-17
4381.00186 1.16093e-17
4382.00176 1.11374e-17
4383.00166 1.08049e-17
4384.00156 1.08042e-17
4385.00146 1.11352e-17
4386.00136 1.16573e-17
4387.00126 1.24260e-17
4388.00116 1.26881e-17
4389.00106 1.22751e-17
4390.00096 1.15301e-17
4391.00086 1.16531e-17
4392.00076 1.22728e-17
4393.00066 1.24212e-17
4394.00056 1.27016e-17
4395.00046 1.27008e-17
4396.00036 1.27000e-17
4397.00026 1.22688e-17
4398.00016 1.22186e-17
4399.00006 1.16471e-17
4399.99996 1.14578e-17
4400.99986 1.16456e-17
4401.99976 1.22154e-17
4402.99966 1.22146e-17
4403.99956 1.22138e-17
4404.99946 1.22130e-17
4405.99936 1.21626e-17
4406.99926 1.22595e-17
4407.99916 1.21610e-17
4408.99906 1.21602e-17
4409.99896 1.21594e-17
4410.99886 1.21586e-17
4411.99876 1.21210e-17
4412.99866 1.15046e-17
4413.99856 1.15039e-17
4414.99846 1.14262e-17
4415.99836 1.14255e-17
4416.99826 1.14247e-17
4417.99816 1.12385e-17
4418.99806 1.12377e-17
4419.99796 1.14994e-17
4420.99786 1.14987e-17
4421.99776 1.26669e-17
4422.99766 1.37875e-17
4423.99756 1.36543e-17
4424.99746 1.36534e-17
4425.99736 1.36525e-17
4426.99726 1.36516e-17
4427.99716 1.24533e-17
4428.99706 1.23851e-17
4429.99696 1.20155e-17
4430.99686 1.19223e-17
4431.99676 1.19215e-17
4432.99666 1.14989e-17
4433.99656 1.19137e-17
4434.99646 1.19129e-17
4435.99636 1.19121e-17
4436.99626 1.19113e-17
4437.99616 1.19105e-17
4438.99606 1.21094e-17
4439.99596 1.19090e-17
4440.99586 1.19082e-17
4441.99576 1.21070e-17
4442.99566 1.21062e-17
4443.99556 1.19144e-17
4444.99546 1.23151e-17
4445.99536 1.19865e-17
4446.99526 1.19121e-17
4447.99516 1.19849e-17
4448.99506 1.19841e-17
4450.00495 1.19833e-17
4451.00486 1.23102e-17
4452.00475 1.22535e-17
4453.00465 1.22527e-17
4454.00455 1.25561e-17
4455.00446 1.25642e-17
4456.00436 1.27540e-17
4457.00425 1.28075e-17
4458.00415 1.28066e-17
4459.00405 1.26384e-17
4460.00396 1.27506e-17
4461.00385 1.27497e-17
4462.00375 1.31827e-17
4463.00365 1.35563e-17
4464.00356 1.38336e-17
4465.00346 1.36406e-17
4466.00335 1.35536e-17
4467.00325 1.36388e-17
4468.00315 1.38339e-17
4469.00306 1.42569e-17
4470.00295 1.42942e-17
4471.00285 1.42932e-17
4472.00275 1.42696e-17
4473.00266 1.40718e-17
4474.00256 1.38757e-17
4475.00245 1.38274e-17
4476.00235 1.38265e-17
4477.00225 1.36632e-17
4478.00216 1.38720e-17
4479.00205 1.38710e-17
4480.00195 1.36605e-17
4481.00185 1.30977e-17
4482.00176 1.21225e-17
4483.00166 1.16846e-17
4484.00155 1.15890e-17
4485.00145 1.15882e-17
4486.00135 1.23532e-17
4487.00126 1.26504e-17
4488.00115 1.26495e-17
4489.00105 1.23507e-17
4490.00095 1.21160e-17
4491.00086 1.21152e-17
4492.00076 1.23482e-17
4493.00065 1.26453e-17
4494.00055 1.27295e-17
4495.00045 1.27287e-17
4496.00036 1.34267e-17
4497.00025 1.34430e-17
4498.00015 1.34421e-17
4499.00005 1.42332e-17
4499.99996 1.43876e-17
4500.99986 1.45190e-17
4501.99975 1.42304e-17
4502.99965 1.41505e-17
4503.99955 1.42284e-17
4504.99946 1.42489e-17
4505.99935 1.48786e-17
4506.99925 1.49766e-17
4507.99915 1.55594e-17
4508.99906 1.57171e-17
4509.99896 1.57160e-17
4510.99885 1.48736e-17
4511.99875 1.57479e-17
4512.99865 1.61403e-17
4513.99856 1.61392e-17
4514.99845 1.61381e-17
4515.99835 1.61370e-17
4516.99825 1.61359e-17
4517.99816 1.53917e-17
4518.99806 1.30845e-17
4519.99795 1.13812e-17
4520.99785 1.24389e-17
4521.99775 1.21335e-17
4522.99766 1.15432e-17
4523.99755 1.15424e-17
4524.99745 1.15416e-17
4525.99735 1.13765e-17
4526.99726 1.15400e-17
4527.99716 1.24329e-17
4528.99705 1.24321e-17
4529.99695 1.24312e-17
4530.99685 1.25191e-17
4531.99676 1.27825e-17
4532.99665 1.28256e-17
4533.99655 1.30346e-17
4534.99645 1.36653e-17
4535.99636 1.37426e-17
4536.99626 1.39434e-17
4537.99615 1.39424e-17
4538.99605 1.46264e-17
4539.99596 1.46254e-17
4540.99586 1.47182e-17
4541.99575 1.47939e-17
4542.99565 1.47929e-17
4543.99555 1.47182e-17
4544.99546 1.47299e-17
4545.99536 1.47162e-17
4546.99525 1.47121e-17
4548.00515 1.46706e-17
4549.00505 1.47132e-17
4550.00495 1.43631e-17
4551.00485 1.38560e-17
4552.00475 1.46666e-17
4553.00465 1.46655e-17
4554.00455 1.46645e-17
4555.00445 1.38522e-17
4556.00435 1.33799e-17
4557.00425 1.33790e-17
4558.00415 1.33780e-17
4559.00405 1.33771e-17
4560.00395 1.35559e-17
4561.00385 1.35712e-17
4562.00375 1.35703e-17
4563.00365 1.34177e-17
4564.00355 1.34168e-17
4565.00345 1.31161e-17
4566.00335 1.31017e-17
4567.00325 1.31008e-17
4568.00315 1.35484e-17
4569.00305 1.34281e-17
4570.00295 1.30981e-17
4571.00285 1.34263e-17
4572.00275 1.34253e-17
4573.00265 1.30953e-17
4574.00255 1.35347e-17
4575.00245 1.36372e-17
4576.00235 1.34216e-17
4577.00225 1.34207e-17
4578.00215 1.34197e-17
4579.00205 1.30716e-17
4580.00195 1.30164e-17
4581.00185 1.30155e-17
4582.00175 1.30689e-17
4583.00165 1.30680e-17
4584.00155 1.30671e-17
4585.00145 1.30661e-17
4586.00135 1.30652e-17
4587.00125 1.27263e-17
4588.00115 1.27254e-17
4589.00105 1.27245e-17
4590.00095 1.29805e-17
4591.00085 1.29796e-17
4592.00075 1.32256e-17
4593.00065 1.32247e-17
4594.00055 1.29768e-17
4595.00045 1.32228e-17
4596.00035 1.32219e-17
4597.00025 1.32210e-17
4598.00015 1.32201e-17
4599.00005 1.35716e-17
4599.99995 1.36930e-17
4600.99985 1.37955e-17
4601.99975 1.40048e-17
4602.99965 1.49881e-17
4603.99955 1.49870e-17
4604.99945 1.49860e-17
4605.99935 1.43174e-17
4606.99925 1.40477e-17
4607.99915 1.37887e-17
4608.99905 1.37092e-17
4609.99895 1.37867e-17
4610.99885 1.30303e-17
4611.99875 1.18213e-17
4612.99865 1.20106e-17
4613.99855 1.20098e-17
4614.99845 1.20089e-17
4615.99835 1.20081e-17
4616.99825 1.20072e-17
4617.99815 1.18163e-17
4618.99805 1.20055e-17
4619.99795 1.29558e-17
4620.99785 1.29736e-17
4621.99775 1.31938e-17
4622.99765 1.31928e-17
4623.99755 1.31919e-17
4624.99745 1.32236e-17
4625.99735 1.31118e-17
4626.99725 1.31891e-17
4627.99715 1.32208e-17
4628.99705 1.31873e-17
4629.99695 1.31863e-17
4630.99685 1.38338e-17
4631.99675 1.31063e-17
4632.99665 1.31053e-17
4633.99655 1.32269e-17
4634.99645 1.28000e-17
4635.99635 1.24175e-17
4636.99625 1.20905e-17
4637.99615 1.21631e-17
4638.99605 1.21623e-17
4639.99595 1.23030e-17
4640.99585 1.21606e-17
4641.99575 1.22426e-17
4642.99565 1.20854e-17
4643.99555 1.20845e-17
4644.99545 1.20837e-17
4645.99535 1.18574e-17
4646.99525 1.15232e-17
4647.99515 1.21545e-17
4648.99505 1.22365e-17
4650.00495 1.22356e-17
4651.00485 1.18191e-17
4652.00475 1.18342e-17
4653.00465 1.18174e-17
4654.00455 1.18326e-17
4655.00445 1.18499e-17
4656.00435 1.28647e-17
4657.00425 1.30270e-17
4658.00415 1.30261e-17
4659.00405 1.30252e-17
4660.00395 1.30243e-17
4661.00385 1.30727e-17
4662.00375 1.30718e-17
4663.00365 1.32714e-17
4664.00355 1.32704e-17
4665.00345 1.28001e-17
4666.00335 1.22156e-17
4667.00325 1.18462e-17
4668.00315 1.22138e-17
4669.00305 1.21369e-17
4670.00295 1.18437e-17
4671.00285 1.17716e-17
4672.00275 1.14978e-17
4673.00265 1.13214e-17
4674.00255 1.11909e-17
4675.00245 1.13198e-17
4676.00235 1.11893e-17
4677.00225 1.11885e-17
4678.00215 1.11877e-17
4679.00205 1.11246e-17
4680.00195 1.11238e-17
4681.00185 1.11853e-17
4682.00175 1.08682e-17
4683.00165 1.09312e-17
4684.00155 1.09304e-17
4685.00145 1.09296e-17
4686.00135 1.14649e-17
4687.00125 1.14641e-17
4688.00115 1.09273e-17
4689.00105 1.09225e-17
4690.00095 1.07685e-17
4691.00085 1.07677e-17
4692.00075 1.09201e-17
4693.00065 1.09234e-17
4694.00055 1.09185e-17
4695.00045 1.09082e-17
4696.00035 1.09074e-17
4697.00025 1.09067e-17
4698.00015 1.08785e-17
4699.00005 1.09051e-17
4699.99995 1.09043e-17
4700.99985 1.08761e-17
4701.99975 1.08753e-17
4702.99965 1.10130e-17
4703.99955 1.09497e-17
4704.99945 1.10114e-17
4705.99935 1.10106e-17
4706.99925 1.11220e-17
4707.99915 1.09466e-17
4708.99905 1.12213e-17
4709.99895 1.09450e-17
4710.99885 1.09442e-17
4711.99875 1.09434e-17
4712.99865 1.10109e-17
4713.99855 1.09418e-17
4714.99845 1.06465e-17
4715.99835 1.02833e-17
4716.99825 1.02659e-17
4717.99815 1.02651e-17
4718.99805 1.04314e-17
4719.99795 1.06427e-17
4720.99785 1.09253e-17
4721.99775 1.10038e-17
4722.99765 1.08435e-17
4723.99755 1.08427e-17
4724.99745 1.09221e-17
4725.99735 1.09213e-17
4726.99725 1.09205e-17
4727.99715 1.11312e-17
4728.99705 1.13219e-17
4729.99695 1.11296e-17
4730.99685 1.13203e-17
4731.99675 1.13194e-17
4732.99665 1.13186e-17
4733.99655 1.13178e-17
4734.99645 1.16903e-17
4735.99635 1.16894e-17
4736.99625 1.18233e-17
4737.99615 1.19286e-17
4738.99605 1.19277e-17
4739.99595 1.22546e-17
4740.99585 1.22537e-17
4741.99575 1.22528e-17
4742.99565 1.22520e-17
4743.99555 1.29040e-17
4744.99545 1.22502e-17
4745.99535 1.23876e-17
4746.99525 1.29012e-17
4748.00515 1.29761e-17
4749.00505 1.29752e-17
4750.00495 1.33402e-17
4751.00485 1.33393e-17
4752.00475 1.28639e-17
4753.00465 1.28630e-17
4754.00455 1.33364e-17
4755.00445 1.33354e-17
4756.00435 1.34422e-17
4757.00425 1.34412e-17
4758.00415 1.33325e-17
4759.00405 1.31502e-17
4760.00395 1.31493e-17
4761.00385 1.31483e-17
4762.00375 1.33415e-17
4763.00365 1.33794e-17
4764.00355 1.33396e-17
4765.00345 1.33386e-17
4766.00335 1.33377e-17
4767.00325 1.31668e-17
4768.00315 1.31658e-17
4769.00305 1.33736e-17
4770.00295 1.33338e-17
4771.00285 1.33716e-17
4772.00275 1.41588e-17
4773.00265 1.41578e-17
4774.00255 1.43284e-17
4775.00245 1.44399e-17
4776.00235 1.44505e-17
4777.00225 1.43253e-17
4778.00215 1.44484e-17
4779.00205 1.44474e-17
4780.00195 1.43222e-17
4781.00185 1.43211e-17
4782.00175 1.44442e-17
4783.00165 1.46853e-17
4784.00155 1.46842e-17
4785.00145 1.48277e-17
4786.00135 1.46821e-17
4787.00125 1.39185e-17
4788.00115 1.35130e-17
4789.00105 1.39165e-17
4790.00095 1.35110e-17
4791.00085 1.40938e-17
4792.00075 1.46071e-17
4793.00065 1.46061e-17
4794.00055 1.40908e-17
4795.00045 1.46040e-17
4796.00035 1.47868e-17
4797.00025 1.47977e-17
4798.00015 1.50106e-17
4799.00005 1.51954e-17
4799.99995 1.52688e-17
4800.99985 1.51932e-17
4801.99975 1.51921e-17
4802.99965 1.50628e-17
4803.99955 1.50617e-17
4804.99945 1.51888e-17
4805.99935 1.56856e-17
4806.99925 1.56845e-17
4807.99915 1.57292e-17
4808.99905 1.58564e-17
4809.99895 1.56811e-17
4810.99885 1.57258e-17
4811.99875 1.58776e-17
4812.99865 1.58765e-17
4813.99855 1.59635e-17
4814.99845 1.64657e-17
4815.99835 1.65728e-17
4816.99825 1.65716e-17
4817.99815 1.66874e-17
4818.99805 1.66862e-17
4819.99795 1.66850e-17
4820.99785 1.66838e-17
4821.99775 1.66826e-17
4822.99765 1.56472e-17
4823.99755 1.56461e-17
4824.99745 1.50876e-17
4825.99735 1.46884e-17
4826.99725 1.48552e-17
4827.99715 1.48542e-17
4828.99705 1.48531e-17
4829.99695 1.48520e-17
4830.99685 1.50810e-17
4831.99675 1.51209e-17
4832.99665 1.50788e-17
4833.99655 1.51187e-17
4834.99645 1.51177e-17
4835.99635 1.51166e-17
4836.99625 1.49174e-17
4837.99615 1.51184e-17
4838.99605 1.50767e-17
4839.99595 1.51162e-17
4840.99585 1.51151e-17
4841.99575 1.51140e-17
4842.99565 1.50723e-17
4843.99555 1.53722e-17
4844.99545 1.51107e-17
4845.99535 1.56760e-17
4846.99525 1.57168e-17
4847.99515 1.60561e-17
4848.99505 1.65163e-17
4850.00495 1.66564e-17
4851.00485 1.66788e-17
4852.00475 1.66540e-17
4853.00465 1.66528e-17
4854.00455 1.65104e-17
4855.00445 1.59836e-17
4856.00435 1.59824e-17
4857.00425 1.55252e-17
4858.00415 1.48895e-17
4859.00405 1.38474e-17
4860.00395 1.35935e-17
4861.00385 1.38454e-17
4862.00375 1.38444e-17
4863.00365 1.38434e-17
4864.00355 1.38424e-17
4865.00345 1.38414e-17
4866.00335 1.30997e-17
4867.00325 1.35866e-17
4868.00315 1.39834e-17
4869.00305 1.39824e-17
4870.00295 1.44435e-17
4871.00285 1.44424e-17
4872.00275 1.38949e-17
4873.00265 1.38939e-17
4874.00255 1.39545e-17
4875.00245 1.39535e-17
4876.00235 1.39525e-17
4877.00225 1.44254e-17
4878.00215 1.39505e-17
4879.00205 1.44233e-17
4880.00195 1.44222e-17
4881.00185 1.47525e-17
4882.00175 1.50444e-17
4883.00165 1.58583e-17
4884.00155 1.72671e-17
4885.00145 1.73137e-17
4886.00135 1.73125e-17
4887.00125 1.69066e-17
4888.00115 1.69054e-17
4889.00105 1.72608e-17
4890.00095 1.80244e-17
4891.00085 1.82930e-17
4892.00075 1.82917e-17
4893.00065 1.70015e-17
4894.00055 1.70003e-17
4895.00045 1.69990e-17
4896.00035 1.73325e-17
4897.00025 1.75803e-17
4898.00015 1.80140e-17
4899.00005 1.83816e-17
4899.99995 1.76842e-17
4900.99985 1.75752e-17
4901.99975 1.76667e-17
4902.99965 1.76803e-17
4903.99955 1.85072e-17
4904.99945 1.85528e-17
4905.99935 1.86664e-17
4906.99925 1.86651e-17
4907.99915 1.88838e-17
4908.99905 2.03550e-17
4909.99895 2.04355e-17
4910.99885 2.04341e-17
4911.99875 2.04326e-17
4912.99865 2.07888e-17
4913.99855 2.03476e-17
4914.99845 1.69911e-17
4915.99835 1.33830e-17
4916.99825 1.48935e-17
4917.99815 1.48924e-17
4918.99805 1.48913e-17
4919.99795 1.48529e-17
4920.99785 1.42830e-17
4921.99775 1.33773e-17
4922.99765 1.42810e-17
4923.99755 1.48486e-17
4924.99745 1.63768e-17
4925.99735 1.64383e-17
4926.99725 1.65512e-17
4927.99715 1.65500e-17
4928.99705 1.69377e-17
4929.99695 1.69365e-17
4930.99685 1.69859e-17
4931.99675 1.73424e-17
4932.99665 1.75101e-17
4933.99655 1.74207e-17
4934.99645 1.73387e-17
4935.99635 1.69292e-17
4936.99625 1.68890e-17
4937.99615 1.66705e-17
4938.99605 1.63584e-17
4939.99595 1.63572e-17
4940.99585 1.63561e-17
4941.99575 1.62992e-17
4942.99565 1.63537e-17
4943.99555 1.63525e-17
4944.99545 1.63514e-17
4945.99535 1.63502e-17
4946.99525 1.63490e-17
4948.00515 1.62922e-17
4949.00505 1.62911e-17
4950.00495 1.62899e-17
4951.00485 1.61185e-17
4952.00475 1.72728e-17
4953.00465 1.72716e-17
4954.00455 1.72316e-17
4955.00445 1.61139e-17
4956.00435 1.53375e-17
4957.00425 1.53074e-17
4958.00415 1.53063e-17
4959.00405 1.53343e-17
4960.00395 1.65916e-17
4961.00385 1.72230e-17
4962.00375 1.72217e-17
4963.00365 1.71349e-17
4964.00355 1.65869e-17
4965.00345 1.63978e-17
4966.00335 1.65143e-17
4967.00325 1.65833e-17
4968.00315 1.71288e-17
4969.00305 1.71275e-17
4970.00295 1.66787e-17
4971.00285 1.66775e-17
4972.00275 1.63897e-17
4973.00265 1.62520e-17
4974.00255 1.61941e-17
4975.00245 1.59795e-17
4976.00235 1.62485e-17
4977.00225 1.62474e-17
4978.00215 1.62462e-17
4979.00205 1.59750e-17
4980.00195 1.59738e-17
4981.00185 1.57433e-17
4982.00175 1.57422e-17
4983.00165 1.69062e-17
4984.00155 1.71309e-17
4985.00145 1.71296e-17
4986.00135 1.71284e-17
4987.00125 1.72739e-17
4988.00115 1.69968e-17
4989.00105 1.69956e-17
4990.00095 1.69608e-17
4991.00085 1.69932e-17
4992.00075 1.69920e-17
4993.00065 1.78746e-17
4994.00055 1.69896e-17
4995.00045 1.69884e-17
4996.00035 1.69535e-17
4997.00025 1.69024e-17
4998.00015 1.67523e-17
4999.00005 1.67511e-17
4999.99995 1.68988e-17
5000.99985 1.58244e-17
5001.99975 1.56547e-17
5002.99965 1.56536e-17
5003.99955 1.50340e-17
5004.99945 1.50330e-17
5005.99935 1.45099e-17
5006.99925 1.44688e-17
5007.99915 1.44678e-17
5008.99905 1.43134e-17
5009.99895 1.44658e-17
5010.99885 1.50266e-17
5011.99875 1.52730e-17
5012.99865 1.52720e-17
5013.99855 1.53733e-17
5014.99845 1.55409e-17
5015.99835 1.52687e-17
5016.99825 1.44224e-17
5017.99815 1.52666e-17
5018.99805 1.44203e-17
5019.99795 1.39655e-17
5020.99785 1.44183e-17
5021.99775 1.44173e-17
5022.99765 1.44163e-17
5023.99755 1.53948e-17
5024.99745 1.53938e-17
5025.99735 1.39597e-17
5026.99725 1.39587e-17
5027.99715 1.39577e-17
5028.99705 1.39567e-17
5029.99695 1.39557e-17
5030.99685 1.47070e-17
5031.99675 1.56243e-17
5032.99665 1.51390e-17
5033.99655 1.47039e-17
5034.99645 1.44071e-17
5035.99635 1.37300e-17
5036.99625 1.33383e-17
5037.99615 1.37281e-17
5038.99605 1.39594e-17
5039.99595 1.39584e-17
5040.99585 1.44010e-17
5041.99575 1.44000e-17
5042.99565 1.43816e-17
5043.99555 1.39348e-17
5044.99545 1.39535e-17
5045.99535 1.39329e-17
5046.99525 1.39516e-17
5047.99515 1.44065e-17
5048.99505 1.51575e-17
5050.00495 1.51565e-17
5051.00485 1.51554e-17
5052.00475 1.56957e-17
5053.00465 1.56946e-17
5054.00455 1.56935e-17
5055.00445 1.57658e-17
5056.00435 1.60882e-17
5057.00425 1.62707e-17
5058.00415 1.62695e-17
5059.00405 1.62684e-17
5060.00395 1.62673e-17
5061.00385 1.62661e-17
5062.00375 1.60815e-17
5063.00365 1.62639e-17
5064.00355 1.62627e-17
5065.00345 1.62616e-17
5066.00335 1.62605e-17
5067.00325 1.67221e-17
5068.00315 1.77121e-17
5069.00305 1.80725e-17
5070.00295 1.80713e-17
5071.00285 1.77546e-17
5072.00275 1.75453e-17
5073.00265 1.70480e-17
5074.00255 1.70468e-17
5075.00245 1.75417e-17
5076.00235 1.76097e-17
5077.00225 1.77472e-17
5078.00215 1.76998e-17
5079.00205 1.76061e-17
5080.00195 1.70454e-17
5081.00185 1.69548e-17
5082.00175 1.69536e-17
5083.00165 1.67164e-17
5084.00155 1.69513e-17
5085.00145 1.69501e-17
5086.00135 1.50480e-17
5087.00125 1.50469e-17
5088.00115 1.59587e-17
5089.00105 1.59576e-17
5090.00095 1.64044e-17
5091.00085 1.63941e-17
5092.00075 1.63929e-17
5093.00065 1.59532e-17
5094.00055 1.63907e-17
5095.00045 1.63987e-17
5096.00035 1.68854e-17
5097.00025 1.68843e-17
5098.00015 1.71513e-17
5099.00005 1.72428e-17
5099.99995 1.75387e-17
5100.99985 1.76096e-17
5101.99975 1.75363e-17
5102.99965 1.75351e-17
5103.99955 1.74577e-17
5104.99945 1.74565e-17
5105.99935 1.74553e-17
5106.99925 1.76611e-17
5107.99915 1.74915e-17
5108.99905 1.74903e-17
5109.99895 1.74505e-17
5110.99885 1.66499e-17
5111.99875 1.66488e-17
5112.99865 1.66477e-17
5113.99855 1.66465e-17
5114.99845 1.66454e-17
5115.99835 1.69301e-17
5116.99825 1.63425e-17
5117.99815 1.63361e-17
5118.99805 1.63402e-17
5119.99795 1.58898e-17
5120.99785 1.63327e-17
5121.99775 1.64136e-17
5122.99765 1.64125e-17
5123.99755 1.63294e-17
5124.99745 1.63316e-17
5125.99735 1.63305e-17
5126.99725 1.63294e-17
5127.99715 1.64069e-17
5128.99705 1.71324e-17
5129.99695 1.71312e-17
5130.99685 1.68844e-17
5131.99675 1.64851e-17
5132.99665 1.63227e-17
5133.99655 1.62812e-17
5134.99645 1.64817e-17
5135.99635 1.67551e-17
5136.99625 1.62779e-17
5137.99615 1.62768e-17
5138.99605 1.57334e-17
5139.99595 1.56216e-17
5140.99585 1.57313e-17
5141.99575 1.58462e-17
5142.99565 1.58451e-17
5143.99555 1.60564e-17
5144.99545 1.60553e-17
5145.99535 1.57259e-17
5146.99525 1.57249e-17
5148.00515 1.57310e-17
5149.00505 1.58412e-17
5150.00495 1.62563e-17
5151.00485 1.63037e-17
5152.00475 1.64619e-17
5153.00465 1.69529e-17
5154.00455 1.64597e-17
5155.00445 1.61719e-17
5156.00435 1.61708e-17
5157.00425 1.61697e-17
5158.00415 1.61686e-17
5159.00405 1.70875e-17
5160.00395 1.61665e-17
5161.00385 1.59047e-17
5162.00375 1.59036e-17
5163.00365 1.52571e-17
5164.00355 1.52561e-17
5165.00345 1.53936e-17
5166.00335 1.53926e-17
5167.00325 1.53916e-17
5168.00315 1.55084e-17
5169.00305 1.55154e-17
5170.00295 1.55063e-17
5171.00285 1.55134e-17
5172.00275 1.65118e-17
5173.00265 1.65107e-17
5174.00255 1.59182e-17
5175.00245 1.59172e-17
5176.00235 1.59161e-17
5177.00225 1.59151e-17
5178.00215 1.61959e-17
5179.00205 1.64704e-17
5180.00195 1.61938e-17
5181.00185 1.59108e-17
5182.00175 1.58321e-17
5183.00165 1.58310e-17
5184.00155 1.58300e-17
5185.00145 1.61615e-17
5186.00135 1.61605e-17
5187.00125 1.61209e-17
5188.00115 1.59491e-17
5189.00105 1.61188e-17
5190.00095 1.61177e-17
5191.00085 1.61551e-17
5192.00075 1.65314e-17
5193.00065 1.65304e-17
5194.00055 1.65293e-17
5195.00045 1.67689e-17
5196.00035 1.67560e-17
5197.00025 1.67666e-17
5198.00015 1.67655e-17
5199.00005 1.67644e-17
5199.99995 1.68297e-17
5200.99985 1.68286e-17
5201.99975 1.68275e-17
5202.99965 1.71469e-17
5203.99955 1.69898e-17
5204.99945 1.71446e-17
5205.99935 1.75410e-17
5206.99925 1.75972e-17
5207.99915 1.74395e-17
5208.99905 1.74384e-17
5209.99895 1.75364e-17
5210.99885 1.84058e-17
5211.99875 1.84046e-17
5212.99865 1.86191e-17
5213.99855 1.84022e-17
5214.99845 1.77866e-17
5215.99835 1.77854e-17
5216.99825 1.87383e-17
5217.99815 1.87371e-17
5218.99805 1.87358e-17
5219.99795 1.79951e-17
5220.99785 1.79402e-17
5221.99775 1.79390e-17
5222.99765 1.79916e-17
5223.99755 1.85319e-17
5224.99745 1.85307e-17
5225.99735 1.81969e-17
5226.99725 1.81474e-17
5227.99715 1.81462e-17
5228.99705 1.81450e-17
5229.99695 1.81921e-17
5230.99685 1.81910e-17
5231.99675 1.81898e-17
5232.99665 1.81403e-17
5233.99655 1.78462e-17
5234.99645 1.81379e-17
5235.99635 1.78439e-17
5236.99625 1.78394e-17
5237.99615 1.78416e-17
5238.99605 1.78404e-17
5239.99595 1.75559e-17
5240.99585 1.78348e-17
5241.99575 1.78336e-17
5242.99565 1.78325e-17
5243.99555 1.78347e-17
5244.99545 1.82773e-17
5245.99535 1.82761e-17
5246.99525 1.83597e-17
5247.99515 1.82738e-17
5248.99505 1.81309e-17
5249.99495 1.70645e-17
5251.00485 1.62925e-17
5252.00475 1.66512e-17
5253.00465 1.77112e-17
5254.00455 1.75656e-17
5255.00445 1.69932e-17
5256.00435 1.66633e-17
5257.00425 1.62862e-17
5258.00415 1.61532e-17
5259.00405 1.61354e-17
5260.00395 1.61165e-17
5261.00385 1.61155e-17
5262.00375 1.66406e-17
5263.00365 1.66558e-17
5264.00355 1.66366e-17
5265.00345 1.65402e-17
5266.00335 1.65392e-17
5267.00325 1.61093e-17
5268.00315 1.61083e-17
5269.00305 1.61388e-17
5270.00295 1.64116e-17
5271.00285 1.64106e-17
5272.00275 1.65328e-17
5273.00265 1.65318e-17
5274.00255 1.64074e-17
5275.00245 1.65297e-17
5276.00235 1.64054e-17
5277.00225 1.59294e-17
5278.00215 1.59284e-17
5279.00205 1.64022e-17
5280.00195 1.63797e-17
5281.00185 1.63786e-17
5282.00175 1.63776e-17
5283.00165 1.59233e-17
5284.00155 1.59223e-17
5285.00145 1.59213e-17
5286.00135 1.63735e-17
5287.00125 1.63724e-17
5288.00115 1.63714e-17
5289.00105 1.55621e-17
5290.00095 1.55611e-17
5291.00085 1.55601e-17
5292.00075 1.69225e-17
5293.00065 1.69424e-17
5294.00055 1.69414e-17
5295.00045 1.74619e-17
5296.00035 1.72727e-17
5297.00025 1.72716e-17
5298.00015 1.72705e-17
5299.00005 1.69361e-17
5299.99995 1.69140e-17
5300.99985 1.65392e-17
5301.99975 1.65382e-17
5302.99965 1.64595e-17
5303.99955 1.54081e-17
5304.99945 1.53026e-17
5305.99935 1.54062e-17
5306.99925 1.54052e-17
5307.99915 1.54042e-17
5308.99905 1.59339e-17
5309.99895 1.62181e-17
5310.99885 1.59319e-17
5311.99875 1.59309e-17
5312.99865 1.60300e-17
5313.99855 1.62140e-17
5314.99845 1.62130e-17
5315.99835 1.62120e-17
5316.99825 1.62315e-17
5317.99815 1.59218e-17
5318.99805 1.47603e-17
5319.99795 1.47594e-17
5320.99785 1.50400e-17
5321.99775 1.50391e-17
5322.99765 1.59169e-17
5323.99755 1.59159e-17
5324.99745 1.50809e-17
5325.99735 1.47539e-17
5326.99725 1.50344e-17
5327.99715 1.50781e-17
5328.99705 1.61018e-17
5329.99695 1.64312e-17
5330.99685 1.64302e-17
5331.99675 1.58219e-17
5332.99665 1.58127e-17
5333.99655 1.55006e-17
5334.99645 1.54997e-17
5335.99635 1.58098e-17
5336.99625 1.58088e-17
5337.99615 1.57258e-17
5338.99605 1.57248e-17
5339.99595 1.52401e-17
5340.99585 1.50195e-17
5341.99575 1.44547e-17
5342.99565 1.46103e-17
5343.99555 1.44529e-17
5344.99545 1.39822e-17
5345.99535 1.39814e-17
5346.99525 1.36159e-17
5348.00515 1.36150e-17
5349.00505 1.44094e-17
5350.00495 1.44476e-17
5351.00485 1.44139e-17
5352.00475 1.44130e-17
5353.00465 1.44122e-17
5354.00455 1.44790e-17
5355.00445 1.47880e-17
5356.00435 1.47871e-17
5357.00425 1.44764e-17
5358.00415 1.44016e-17
5359.00405 1.41924e-17
5360.00395 1.39266e-17
5361.00385 1.39258e-17
5362.00375 1.39095e-17
5363.00365 1.41890e-17
5364.00355 1.41881e-17
5365.00345 1.41872e-17
5366.00335 1.39061e-17
5367.00325 1.39053e-17
5368.00315 1.39044e-17
5369.00305 1.43374e-17
5370.00295 1.43366e-17
5371.00285 1.43555e-17
5372.00275 1.45505e-17
5373.00265 1.43538e-17
5374.00255 1.45488e-17
5375.00245 1.45479e-17
5376.00235 1.43512e-17
5377.00225 1.43305e-17
5378.00215 1.38196e-17
5379.00205 1.34901e-17
5380.00195 1.30743e-17
5381.00185 1.34885e-17
5382.00175 1.33479e-17
5383.00165 1.30719e-17
5384.00155 1.32041e-17
5385.00145 1.32033e-17
5386.00135 1.30696e-17
5387.00125 1.32473e-17
5388.00115 1.33432e-17
5389.00105 1.33424e-17
5390.00095 1.33416e-17
5391.00085 1.33408e-17
5392.00075 1.33150e-17
5393.00065 1.33142e-17
5394.00055 1.39852e-17
5395.00045 1.39889e-17
5396.00035 1.40704e-17
5397.00025 1.40696e-17
5398.00015 1.41605e-17
5399.00005 1.39856e-17
5399.99995 1.35749e-17
5400.99985 1.35741e-17
5401.99975 1.35733e-17
5402.99965 1.35725e-17
5403.99955 1.39814e-17
5404.99945 1.39806e-17
5405.99935 1.36587e-17
5406.99925 1.36579e-17
5407.99915 1.35685e-17
5408.99905 1.30913e-17
5409.99895 1.30905e-17
5410.99885 1.27542e-17
5411.99875 1.25331e-17
5412.99865 1.25159e-17
5413.99855 1.27520e-17
5414.99845 1.27512e-17
5415.99835 1.27505e-17
5416.99825 1.27497e-17
5417.99815 1.25287e-17
5418.99805 1.23991e-17
5419.99795 1.23984e-17
5420.99785 1.23976e-17
5421.99775 1.21971e-17
5422.99765 1.24571e-17
5423.99755 1.24564e-17
5424.99745 1.20831e-17
5425.99735 1.20824e-17
5426.99725 1.21499e-17
5427.99715 1.20809e-17
5428.99705 1.21485e-17
5429.99695 1.21478e-17
5430.99685 1.20788e-17
5431.99675 1.20781e-17
5432.99665 1.21456e-17
5433.99655 1.26879e-17
5434.99645 1.26871e-17
5435.99635 1.25004e-17
5436.99625 1.24997e-17
5437.99615 1.24990e-17
5438.99605 1.24982e-17
5439.99595 1.29187e-17
5440.99585 1.29180e-17
5441.99575 1.27832e-17
5442.99565 1.24992e-17
5443.99555 1.24946e-17
5444.99545 1.22956e-17
5445.99535 1.24932e-17
5446.99525 1.22461e-17
5447.99515 1.20946e-17
5448.99505 1.20939e-17
5449.99495 1.20932e-17
5451.00485 1.20926e-17
5452.00475 1.19390e-17
5453.00464 1.19383e-17
5454.00455 1.20142e-17
5455.00445 1.20135e-17
5456.00435 1.20891e-17
5457.00425 1.29723e-17
5458.00414 1.32268e-17
5459.00405 1.32261e-17
5460.00395 1.33777e-17
5461.00385 1.42179e-17
5462.00374 1.42538e-17
5463.00365 1.49425e-17
5464.00355 1.49417e-17
5465.00345 1.49043e-17
5466.00335 1.49034e-17
5467.00324 1.45716e-17
5468.00315 1.42123e-17
5469.00305 1.42115e-17
5470.00295 1.44719e-17
5471.00284 1.44711e-17
5472.00275 1.36661e-17
5473.00265 1.36653e-17
5474.00255 1.35237e-17
5475.00245 1.28534e-17
5476.00234 1.28526e-17
5477.00225 1.28402e-17
5478.00215 1.24652e-17
5479.00205 1.22895e-17
5480.00194 1.22888e-17
5481.00185 1.21292e-17
5482.00175 1.22200e-17
5483.00165 1.22867e-17
5484.00155 1.22861e-17
5485.00144 1.22854e-17
5486.00135 1.27476e-17
5487.00125 1.27469e-17
5488.00115 1.27916e-17
5489.00104 1.27909e-17
5490.00095 1.27902e-17
5491.00085 1.30305e-17
5492.00075 1.32361e-17
5493.00065 1.30291e-17
5494.00054 1.27873e-17
5495.00045 1.27866e-17
5496.00035 1.24438e-17
5497.00025 1.22948e-17
5498.00014 1.22942e-17
5499.00005 1.22242e-17
5499.99995 1.21438e-17
5500.99985 1.21700e-17
5501.99975 1.21424e-17
5502.99964 1.21687e-17
5503.99955 1.22901e-17
5504.99945 1.21673e-17
5505.99935 1.21397e-17
5506.99924 1.21660e-17
5507.99915 1.21384e-17
5508.99905 1.21646e-17
5509.99895 1.23419e-17
5510.99885 1.22596e-17
5511.99874 1.22231e-17
5512.99865 1.22582e-17
5513.99855 1.22217e-17
5514.99845 1.20845e-17
5515.99834 1.22204e-17
5516.99825 1.18753e-17
5517.99815 1.16426e-17
5518.99805 1.18740e-17
5519.99795 1.16413e-17
5520.99784 1.18727e-17
5521.99775 1.20529e-17
5522.99765 1.19147e-17
5523.99755 1.18708e-17
5524.99744 1.19134e-17
5525.99735 1.19128e-17
5526.99725 1.19121e-17
5527.99715 1.20490e-17
5528.99705 1.20483e-17
5529.99694 1.20645e-17
5530.99685 1.20638e-17
5531.99675 1.19138e-17
5532.99665 1.19132e-17
5533.99654 1.19125e-17
5534.99645 1.19119e-17
5535.99635 1.20605e-17
5536.99625 1.28554e-17
5537.99615 1.28547e-17
5538.99604 1.28540e-17
5539.99595 1.21533e-17
5540.99585 1.21526e-17
5541.99575 1.21519e-17
5542.99564 1.21513e-17
5543.99555 1.20598e-17
5544.99545 1.19918e-17
5545.99535 1.18836e-17
5546.99525 1.19905e-17
5548.00514 1.19337e-17
5549.00504 1.18816e-17
5550.00494 1.16612e-17
5551.00484 1.16606e-17
5552.00474 1.13730e-17
5553.00464 1.13724e-17
5554.00454 1.19298e-17
5555.00444 1.21587e-17
5556.00434 1.21581e-17
5557.00424 1.23310e-17
5558.00414 1.23303e-17
5559.00404 1.23297e-17
5560.00394 1.23506e-17
5561.00384 1.24041e-17
5562.00374 1.28116e-17
5563.00364 1.24028e-17
5564.00354 1.23479e-17
5565.00344 1.22716e-17
5566.00334 1.22710e-17
5567.00324 1.22703e-17
5568.00314 1.23453e-17
5569.00304 1.23447e-17
5570.00294 1.24174e-17
5571.00284 1.26099e-17
5572.00274 1.22671e-17
5573.00264 1.21680e-17
5574.00254 1.23084e-17
5575.00244 1.23077e-17
5576.00234 1.24135e-17
5577.00224 1.27061e-17
5578.00214 1.26246e-17
5579.00204 1.26239e-17
5580.00194 1.23045e-17
5581.00184 1.23038e-17
5582.00174 1.16568e-17
5583.00164 1.23026e-17
5584.00154 1.24013e-17
5585.00144 1.26199e-17
5586.00134 1.23520e-17
5587.00124 1.23513e-17
5588.00114 1.15245e-17
5589.00104 1.15239e-17
5590.00094 1.16209e-17
5591.00084 1.17159e-17
5592.00074 1.17152e-17
5593.00064 1.19578e-17
5594.00054 1.17140e-17
5595.00044 1.16881e-17
5596.00034 1.16875e-17
5597.00024 1.16868e-17
5598.00014 1.16862e-17
5599.00004 1.17110e-17
5599.99994 1.16850e-17
5600.99984 1.15422e-17
5601.99974 1.14208e-17
5602.99964 1.14202e-17
5603.99954 1.07990e-17
5604.99944 1.07984e-17
5605.99934 1.08609e-17
5606.99924 1.07973e-17
5607.99914 1.06435e-17
5608.99904 1.07962e-17
5609.99894 9.98935e-18
5610.99884 9.98884e-18
5611.99874 1.15374e-17
5612.99864 1.17179e-17
5613.99854 1.15362e-17
5614.99844 1.15356e-17
5615.99834 1.13133e-17
5616.99824 1.13127e-17
5617.99814 1.13429e-17
5618.99804 1.16032e-17
5619.99794 1.13417e-17
5620.99784 1.08236e-17
5621.99774 1.07301e-17
5622.99764 1.04539e-17
5623.99754 1.01401e-17
5624.99744 1.01396e-17
5625.99734 1.01391e-17
5626.99724 1.01385e-17
5627.99714 9.95991e-18
5628.99704 1.01375e-17
5629.99694 1.01370e-17
5630.99684 1.01365e-17
5631.99674 1.03729e-17
5632.99664 1.08894e-17
5633.99654 1.08888e-17
5634.99644 1.08883e-17
5635.99634 1.08877e-17
5636.99624 1.14138e-17
5637.99614 1.08295e-17
5638.99604 1.08289e-17
5639.99594 1.05408e-17
5640.99584 1.03682e-17
5641.99574 1.03488e-17
5642.99564 1.03252e-17
5643.99554 1.03247e-17
5644.99544 1.01550e-17
5645.99534 9.90131e-18
5646.99524 9.61701e-18
5647.99514 9.15529e-18
5648.99504 9.15483e-18
5649.99494 9.15437e-18
5651.00484 9.12057e-18
5652.00474 9.10961e-18
5653.00464 9.10916e-18
5654.00454 9.11920e-18
5655.00444 9.11875e-18
5656.00434 9.15163e-18
5657.00424 9.11784e-18
5658.00414 9.11739e-18
5659.00404 9.16868e-18
5660.00394 9.18427e-18
5661.00384 9.39874e-18
5662.00374 9.39828e-18
5663.00364 9.19676e-18
5664.00354 8.69761e-18
5665.00344 8.69718e-18
5666.00334 8.69675e-18
5667.00324 9.19494e-18
5668.00314 9.39548e-18
5669.00304 9.72385e-18
5670.00294 9.72337e-18
5671.00284 9.94264e-18
5672.00274 1.04087e-17
5673.00264 1.04294e-17
5674.00254 1.06281e-17
5675.00244 1.06276e-17
5676.00234 1.06271e-17
5677.00224 1.06266e-17
5678.00214 1.05151e-17
5679.00204 1.10639e-17
5680.00194 1.11396e-17
5681.00184 1.11390e-17
5682.00174 1.10622e-17
5683.00164 1.08524e-17
5684.00154 1.02089e-17
5685.00144 1.02084e-17
5686.00134 1.02079e-17
5687.00124 1.03943e-17
5688.00114 1.04545e-17
5689.00104 1.04540e-17
5690.00094 1.01375e-17
5691.00084 1.01370e-17
5692.00074 1.01365e-17
5693.00064 1.01188e-17
5694.00054 1.01355e-17
5695.00044 1.01350e-17
5696.00034 1.00644e-17
5697.00024 1.00639e-17
5698.00014 1.00634e-17
5699.00004 1.00629e-17
5699.99994 1.00624e-17
5700.99984 9.83343e-18
5701.99974 9.19242e-18
5702.99964 9.16584e-18
5703.99954 8.68467e-18
5704.99944 8.68425e-18
5705.99934 9.50719e-18
5706.99924 9.50673e-18
5707.99914 9.50627e-18
5708.99904 9.50582e-18
5709.99894 9.18888e-18
5710.99884 9.05556e-18
5711.99874 9.39268e-18
5712.99864 9.50400e-18
5713.99854 9.63151e-18
5714.99844 9.94619e-18
5715.99834 1.00174e-17
5716.99824 1.01523e-17
5717.99814 1.00165e-17
5718.99804 1.01513e-17
5719.99794 1.00155e-17
5720.99784 1.00150e-17
5721.99774 1.00978e-17
5722.99764 1.01494e-17
5723.99754 1.04997e-17
5724.99744 1.06863e-17
5725.99734 1.09871e-17
5726.99724 1.09865e-17
5727.99714 1.12770e-17
5728.99704 1.12764e-17
5729.99694 1.12759e-17
5730.99684 1.12754e-17
5731.99674 1.12748e-17
5732.99664 1.10603e-17
5733.99654 1.10598e-17
5734.99644 1.10163e-17
5735.99634 1.09519e-17
5736.99624 1.09514e-17
5737.99614 1.09530e-17
5738.99604 1.09525e-17
5739.99594 1.09520e-17
5740.99584 1.10132e-17
5741.99574 1.06026e-17
5742.99564 1.06021e-17
5743.99554 1.08594e-17
5744.99544 1.10122e-17
5745.99534 1.08680e-17
5746.99524 1.10111e-17
5748.00514 1.08574e-17
5749.00504 1.07579e-17
5750.00494 1.07574e-17
5751.00484 1.08655e-17
5752.00474 1.08650e-17
5753.00464 1.11379e-17
5754.00454 1.17401e-17
5755.00444 1.17396e-17
5756.00434 1.18368e-17
5757.00424 1.19418e-17
5758.00414 1.19020e-17
5759.00404 1.19407e-17
5760.00394 1.19401e-17
5761.00384 1.19004e-17
5762.00374 1.18998e-17
5763.00364 1.21007e-17
5764.00354 1.22543e-17
5765.00344 1.20100e-17
5766.00334 1.20016e-17
5767.00324 1.20011e-17
5768.00314 1.18966e-17
5769.00304 1.20000e-17
5770.00294 1.29763e-17
5771.00284 1.37867e-17
5772.00274 1.39149e-17
5773.00264 1.37854e-17
5774.00254 1.37668e-17
5775.00244 1.37662e-17
5776.00234 1.37655e-17
5777.00224 1.37649e-17
5778.00214 1.36640e-17
5779.00204 1.37008e-17
5780.00194 1.36628e-17
5781.00184 1.34667e-17
5782.00174 1.29516e-17
5783.00164 1.28445e-17
5784.00154 1.26812e-17
5785.00144 1.26807e-17
5786.00134 1.21711e-17
5787.00124 1.18182e-17
5788.00114 1.18176e-17
5789.00104 1.21695e-17
5790.00094 1.21689e-17
5791.00084 1.26810e-17
5792.00074 1.26804e-17
5793.00064 1.26799e-17
5794.00054 1.32742e-17
5795.00044 1.35546e-17
5796.00034 1.37132e-17
5797.00024 1.37299e-17
5798.00014 1.37120e-17
5799.00004 1.37114e-17
5799.99994 1.32706e-17
5800.99984 1.32834e-17
5801.99974 1.34886e-17
5802.99964 1.37262e-17
5803.99954 1.45232e-17
5804.99944 1.48049e-17
5805.99934 1.45219e-17
5806.99924 1.34856e-17
5807.99914 1.27330e-17
5808.99904 1.26505e-17
5809.99894 1.26499e-17
5810.99884 1.26494e-17
5811.99874 1.30683e-17
5812.99864 1.30677e-17
5813.99854 1.30671e-17
5814.99844 1.27677e-17
5815.99834 1.27672e-17
5816.99824 1.26460e-17
5817.99814 1.27660e-17
5818.99804 1.28640e-17
5819.99794 1.30645e-17
5820.99784 1.30640e-17
5821.99774 1.30625e-17
5822.99764 1.28686e-17
5823.99754 1.28680e-17
5824.99744 1.28606e-17
5825.99734 1.28669e-17
5826.99724 1.28663e-17
5827.99714 1.27493e-17
5828.99704 1.27487e-17
5829.99694 1.28646e-17
5830.99684 1.28640e-17
5831.99674 1.31762e-17
5832.99664 1.28629e-17
5833.99654 1.26402e-17
5834.99644 1.26397e-17
5835.99634 1.29861e-17
5836.99624 1.30165e-17
5837.99614 1.30372e-17
5838.99604 1.30154e-17
5839.99594 1.29982e-17
5840.99584 1.29102e-17
5841.99574 1.22260e-17
5842.99564 1.21029e-17
5843.99554 1.22250e-17
5844.99544 1.29810e-17
5845.99534 1.29073e-17
5846.99524 1.22440e-17
5847.99514 1.20673e-17
5848.99504 1.20291e-17
5849.99494 1.20035e-17
5851.00484 1.19684e-17
5852.00474 1.19679e-17
5853.00464 1.19674e-17
5854.00454 1.20014e-17
5855.00444 1.20009e-17
5856.00434 1.20004e-17
5857.00424 1.19998e-17
5858.00414 1.20621e-17
5859.00404 1.19642e-17
5860.00394 1.23033e-17
5861.00384 1.24484e-17
5862.00374 1.24479e-17
5863.00364 1.27585e-17
5864.00354 1.29264e-17
5865.00344 1.29531e-17
5866.00334 1.30210e-17
5867.00324 1.29520e-17
5868.00314 1.29242e-17
5869.00304 1.28535e-17
5870.00294 1.28529e-17
5871.00284 1.28636e-17
5872.00274 1.29356e-17
5873.00264 1.28625e-17
5874.00254 1.27431e-17
5875.00244 1.26569e-17
5876.00234 1.15712e-17
5877.00224 1.05596e-17
5878.00214 1.07321e-17
5879.00204 1.05587e-17
5880.00194 1.02692e-17
5881.00184 9.96095e-18
5882.00174 9.83206e-18
5883.00164 9.71564e-18
5884.00154 9.53548e-18
5885.00144 9.71482e-18
5886.00134 9.80321e-18
5887.00124 9.82997e-18
5888.00114 9.95799e-18
5889.00104 9.95757e-18
5890.00094 9.95715e-18
5891.00084 9.82831e-18
5892.00074 9.97435e-18
5893.00064 9.97393e-18
5894.00054 9.97351e-18
5895.00044 9.97309e-18
5896.00034 1.01482e-17
5897.00024 1.03752e-17
5898.00014 1.04663e-17
5899.00004 1.04946e-17
5899.99994 1.07200e-17
5900.99984 1.14118e-17
5901.99974 1.04645e-17
5902.99964 1.06493e-17
5903.99954 1.06488e-17
5904.99944 1.09994e-17
5905.99934 1.11406e-17
5906.99924 1.12407e-17
5907.99914 1.11397e-17
5908.99904 1.10485e-17
5909.99894 1.09971e-17
5910.99884 1.09966e-17
5911.99874 1.09962e-17
5912.99864 1.10467e-17
5913.99854 1.11369e-17
5914.99844 1.12369e-17
5915.99834 1.12364e-17
5916.99824 1.15153e-17
5917.99814 1.16963e-17
5918.99804 1.21872e-17
5919.99794 1.29713e-17
5920.99784 1.29807e-17
5921.99774 1.29702e-17
5922.99764 1.28249e-17
5923.99754 1.24238e-17
5924.99744 1.21841e-17
5925.99734 1.21104e-17
5926.99724 1.24222e-17
5927.99714 1.24240e-17
5928.99704 1.24235e-17
5929.99694 1.21084e-17
5930.99684 1.15494e-17
5931.99674 1.15489e-17
5932.99664 1.15484e-17
5933.99654 1.19955e-17
5934.99644 1.21059e-17
5935.99634 1.21054e-17
5936.99624 1.16173e-17
5937.99614 1.14328e-17
5938.99604 1.13179e-17
5939.99594 1.13174e-17
5940.99584 1.13169e-17
5941.99574 1.13165e-17
5942.99564 1.14305e-17
5943.99554 1.14300e-17
5944.99544 1.14295e-17
5945.99534 1.14291e-17
5946.99524 1.14286e-17
5947.99514 1.13137e-17
5949.00504 1.19263e-17
5950.00494 1.21340e-17
5951.00484 1.22530e-17
5952.00474 1.22453e-17
5953.00464 1.22520e-17
5954.00454 1.23432e-17
5955.00444 1.25126e-17
5956.00434 1.26902e-17
5957.00424 1.30155e-17
5958.00414 1.30150e-17
5959.00404 1.25105e-17
5960.00394 1.23402e-17
5961.00384 1.21948e-17
5962.00374 1.20972e-17
5963.00364 1.25085e-17
5964.00354 1.20962e-17
5965.00344 1.19502e-17
5966.00334 1.15612e-17
5967.00324 1.14164e-17
5968.00314 1.14159e-17
5969.00304 1.14155e-17
5970.00294 1.15830e-17
5971.00284 1.15826e-17
5972.00274 1.13792e-17
5973.00264 1.13787e-17
5974.00254 1.13782e-17
5975.00244 1.14127e-17
5976.00234 1.14123e-17
5977.00224 1.14118e-17
5978.00214 1.13109e-17
5979.00204 1.13105e-17
5980.00194 1.13100e-17
5981.00184 1.17495e-17
5982.00174 1.17491e-17
5983.00164 1.17486e-17
5984.00154 1.16201e-17
5985.00144 1.16196e-17
5986.00134 1.16192e-17
5987.00124 1.17467e-17
5988.00114 1.19826e-17
5989.00104 1.19822e-17
5990.00094 1.18002e-17
5991.00084 1.17997e-17
5992.00074 1.17992e-17
5993.00064 1.17988e-17
5994.00054 1.19835e-17
5995.00044 1.19830e-17
5996.00034 1.19825e-17
5997.00024 1.21127e-17
5998.00014 1.21122e-17
5999.00004 1.25323e-17
5999.99994 1.25318e-17
6000.99984 1.21107e-17
6001.99974 1.21364e-17
6002.99964 1.22229e-17
6003.99954 1.22225e-17
6004.99944 1.22220e-17
6005.99934 1.22215e-17
6006.99924 1.20844e-17
6007.99914 1.17439e-17
6008.99904 1.16777e-17
6009.99894 1.16773e-17
6010.99884 1.17425e-17
6011.99874 1.20821e-17
6012.99864 1.20816e-17
6013.99854 1.20811e-17
6014.99844 1.17407e-17
6015.99834 1.31035e-17
6016.99824 1.34636e-17
6017.99814 1.36206e-17
6018.99804 1.34625e-17
6019.99794 1.34620e-17
6020.99784 1.33539e-17
6021.99774 1.31005e-17
6022.99764 1.34604e-17
6023.99754 1.34739e-17
6024.99744 1.29519e-17
6025.99734 1.26714e-17
6026.99724 1.23586e-17
6027.99714 1.21454e-17
6028.99704 1.21081e-17
6029.99694 1.17240e-17
6030.99684 1.13790e-17
6031.99674 1.13786e-17
6032.99664 1.08815e-17
6033.99654 1.08428e-17
6034.99644 1.08236e-17
6035.99634 1.08126e-17
6036.99624 1.08122e-17
6037.99614 1.08411e-17
6038.99604 1.08407e-17
6039.99594 1.08403e-17
6040.99584 1.08399e-17
6041.99574 1.08395e-17
6042.99564 1.09945e-17
6043.99554 1.14800e-17
6044.99544 1.17608e-17
6045.99534 1.20972e-17
6046.99524 1.20967e-17
6047.99514 1.20963e-17
6048.99504 1.17590e-17
6049.99494 1.17586e-17
6051.00484 1.17581e-17
6052.00474 1.22256e-17
6053.00464 1.22251e-17
6054.00454 1.22247e-17
6055.00444 1.18801e-17
6056.00434 1.18796e-17
6057.00424 1.17892e-17
6058.00414 1.17888e-17
6059.00404 1.18783e-17
6060.00394 1.18778e-17
6061.00384 1.18774e-17
6062.00374 1.20171e-17
6063.00364 1.18765e-17
6064.00354 1.17861e-17
6065.00344 1.17353e-17
6066.00334 1.17021e-17
6067.00324 1.13903e-17
6068.00314 1.09606e-17
6069.00304 1.09602e-17
6070.00294 1.09503e-17
6071.00284 1.09166e-17
6072.00274 1.08511e-17
6073.00264 1.06023e-17
6074.00254 1.06019e-17
6075.00244 1.07138e-17
6076.00234 1.06011e-17
6077.00224 1.02726e-17
6078.00214 1.00333e-17
6079.00204 1.00329e-17
6080.00194 1.00325e-17
6081.00184 1.02554e-17
6082.00174 1.07110e-17
6083.00164 1.07106e-17
6084.00154 1.02699e-17
6085.00144 1.00808e-17
6086.00134 1.00804e-17
6087.00124 1.00800e-17
6088.00114 1.10576e-17
6089.00104 1.11191e-17
6090.00094 1.11792e-17
6091.00084 1.15363e-17
6092.00074 1.11784e-17
6093.00064 1.11969e-17
6094.00054 1.11965e-17
6095.00044 1.11960e-17
6096.00034 1.12761e-17
6097.00024 1.12756e-17
6098.00014 1.12752e-17
6099.00004 1.12748e-17
6099.99994 1.12744e-17
6100.99984 1.11936e-17
6101.99974 1.12736e-17
6102.99964 1.11927e-17
6103.99954 1.10481e-17
6104.99944 1.12505e-17
6105.99934 1.12719e-17
6106.99924 1.16673e-17
6107.99914 1.21169e-17
6108.99904 1.22678e-17
6109.99894 1.25774e-17
6110.99884 1.25770e-17
6111.99874 1.24924e-17
6112.99864 1.24920e-17
6113.99854 1.25756e-17
6114.99844 1.27491e-17
6115.99834 1.27487e-17
6116.99824 1.27482e-17
6117.99814 1.27477e-17
6118.99804 1.24160e-17
6119.99794 1.24155e-17
6120.99784 1.24883e-17
6121.99774 1.24146e-17
6122.99764 1.23878e-17
6123.99754 1.23339e-17
6124.99744 1.16135e-17
6125.99734 1.13645e-17
6126.99724 1.13641e-17
6127.99714 1.16123e-17
6128.99704 1.20233e-17
6129.99694 1.20228e-17
6130.99684 1.15724e-17
6131.99674 1.13620e-17
6132.99664 1.13616e-17
6133.99654 1.13612e-17
6134.99644 1.20002e-17
6135.99634 1.20415e-17
6136.99624 1.20883e-17
6137.99614 1.19989e-17
6138.99604 1.17791e-17
6139.99594 1.17786e-17
6140.99584 1.17782e-17
6141.99574 1.19972e-17
6142.99564 1.20857e-17
6143.99554 1.20948e-17
6144.99544 1.20943e-17
6145.99534 1.17761e-17
6146.99524 1.13612e-17
6147.99514 1.10555e-17
6149.00504 1.10551e-17
6150.00494 1.13600e-17
6151.00484 1.16667e-17
6152.00474 1.16663e-17
6153.00464 1.14107e-17
6154.00454 1.11729e-17
6155.00444 1.09837e-17
6156.00434 1.09755e-17
6157.00424 1.07862e-17
6158.00414 1.06577e-17
6159.00404 1.06121e-17
6160.00394 1.06569e-17
6161.00384 1.06565e-17
6162.00374 1.06562e-17
6163.00364 1.06558e-17
6164.00354 1.06554e-17
6165.00344 1.06098e-17
6166.00334 1.08919e-17
6167.00324 1.13918e-17
6168.00314 1.14379e-17
6169.00304 1.18344e-17
6170.00294 1.20529e-17
6171.00284 1.20525e-17
6172.00274 1.15083e-17
6173.00264 1.14358e-17
6174.00254 1.14354e-17
6175.00244 1.15071e-17
6176.00234 1.18314e-17
6177.00224 1.18310e-17
6178.00214 1.13914e-17
6179.00204 1.10805e-17
6180.00194 1.10801e-17
6181.00184 1.10483e-17
6182.00174 1.09830e-17
6183.00164 1.09826e-17
6184.00154 1.09280e-17
6185.00144 1.08100e-17
6186.00134 1.08866e-17
6187.00124 1.08862e-17
6188.00114 1.08089e-17
6189.00104 1.09261e-17
6190.00094 1.09434e-17
6191.00084 1.09254e-17
6192.00074 1.09250e-17
6193.00064 1.09423e-17
6194.00054 1.11055e-17
6195.00044 1.11051e-17
6196.00034 1.11047e-17
6197.00024 1.14353e-17
6198.00014 1.14872e-17
6199.00004 1.14345e-17
6199.99994 1.14864e-17
6200.99984 1.14860e-17
6201.99974 1.14434e-17
6202.99964 1.14329e-17
6203.99954 1.12336e-17
6204.99944 1.12332e-17
6205.99934 1.14418e-17
6206.99924 1.15194e-17
6207.99914 1.15363e-17
6208.99904 1.15359e-17
6209.99894 1.14402e-17
6210.99884 1.12308e-17
6211.99874 1.09928e-17
6212.99864 1.09924e-17
6213.99854 1.13058e-17
6214.99844 1.13054e-17
6215.99834 1.12893e-17
6216.99824 1.10084e-17
6217.99814 1.09359e-17
6218.99804 1.09355e-17
6219.99794 1.09897e-17
6220.99784 1.12873e-17
6221.99774 1.13026e-17
6222.99764 1.13033e-17
6223.99754 1.13018e-17
6224.99744 1.15167e-17
6225.99734 1.23395e-17
6226.99724 1.23391e-17
6227.99714 1.24419e-17
6228.99704 1.23382e-17
6229.99694 1.23378e-17
6230.99684 1.22037e-17
6231.99674 1.17578e-17
6232.99664 1.22029e-17
6233.99654 1.22024e-17
6234.99644 1.22020e-17
6235.99634 1.22016e-17
6236.99624 1.22012e-17
6237.99614 1.17553e-17
6238.99604 1.27083e-17
6239.99594 1.29012e-17
6240.99584 1.29007e-17
6241.99574 1.29003e-17
6242.99564 1.28999e-17
6243.99554 1.32085e-17
6244.99544 1.32371e-17
6245.99534 1.32076e-17
6246.99524 1.28981e-17
6247.99514 1.24900e-17
6248.99504 1.24896e-17
6249.99494 1.24891e-17
6251.00484 1.25211e-17
6252.00474 1.25207e-17
6253.00464 1.25202e-17
6254.00454 1.23385e-17
6255.00444 1.23381e-17
6256.00434 1.23376e-17
6257.00424 1.24941e-17
6258.00414 1.24937e-17
6259.00404 1.24933e-17
6260.00394 1.21446e-17
6261.00384 1.21442e-17
6262.00374 1.21437e-17
6263.00364 1.24362e-17
6264.00354 1.24428e-17
6265.00344 1.24424e-17
6266.00334 1.24145e-17
6267.00324 1.22121e-17
6268.00314 1.22117e-17
6269.00304 1.23140e-17
6270.00294 1.23136e-17
6271.00284 1.24124e-17
6272.00274 1.23128e-17
6273.00264 1.21138e-17
6274.00254 1.17848e-17
6275.00244 1.17844e-17
6276.00234 1.21126e-17
6277.00224 1.21942e-17
6278.00214 1.23103e-17
6279.00204 1.23099e-17
6280.00194 1.21109e-17
6281.00184 1.21950e-17
6282.00174 1.21946e-17
6283.00164 1.21942e-17
6284.00154 1.21938e-17
6285.00144 1.21934e-17
6286.00134 1.23567e-17
6287.00124 1.23563e-17
6288.00114 1.23559e-17
6289.00104 1.23555e-17
6290.00094 1.23551e-17
6291.00084 1.21909e-17
6292.00074 1.25257e-17
6293.00064 1.25425e-17
6294.00054 1.25854e-17
6295.00044 1.27792e-17
6296.00034 1.29197e-17
6297.00024 1.29193e-17
6298.00014 1.29189e-17
6299.00004 1.29184e-17
6299.99994 1.29180e-17
6300.99984 1.19443e-17
6301.99974 1.20414e-17
6302.99964 1.20410e-17
6303.99954 1.20406e-17
6304.99944 1.20402e-17
6305.99934 1.19423e-17
6306.99924 1.19196e-17
6307.99914 1.19095e-17
6308.99904 1.19051e-17
6309.99894 1.16085e-17
6310.99884 1.14559e-17
6311.99874 1.09708e-17
6312.99864 1.08637e-17
6313.99854 1.09700e-17
6314.99844 1.09697e-17
6315.99834 1.09693e-17
6316.99824 1.08623e-17
6317.99814 1.05111e-17
6318.99804 1.05008e-17
6319.99794 1.04566e-17
6320.99784 1.04562e-17
6321.99774 1.04559e-17
6322.99764 1.04994e-17
6323.99754 1.01952e-17
6324.99744 9.56720e-18
6325.99734 1.01945e-17
6326.99724 1.01941e-17
6327.99714 1.01938e-17
6328.99704 1.01935e-17
6329.99694 1.01931e-17
6330.99684 9.56530e-18
6331.99674 1.05767e-17
6332.99664 1.10989e-17
6333.99654 1.19482e-17
6334.99644 1.23491e-17
6335.99634 1.24178e-17
6336.99624 1.27122e-17
6337.99614 1.27118e-17
6338.99604 1.27751e-17
6339.99594 1.27109e-17
6340.99584 1.20334e-17
6341.99574 1.20330e-17
6342.99564 1.23166e-17
6343.99554 1.23161e-17
6344.99544 1.23450e-17
6345.99534 1.27084e-17
6346.99524 1.27080e-17
6347.99514 1.23145e-17
6349.00504 1.32686e-17
6350.00494 1.32682e-17
6351.00484 1.32677e-17
6352.00474 1.32673e-17
6353.00464 1.32669e-17
6354.00454 1.32190e-17
6355.00444 1.29885e-17
6356.00434 1.26445e-17
6357.00424 1.29876e-17
6358.00414 1.29872e-17
6359.00404 1.29868e-17
6360.00394 1.29863e-17
6361.00384 1.29859e-17
6362.00374 1.26420e-17
6363.00364 1.26909e-17
6364.00354 1.26905e-17
6365.00344 1.26901e-17
6366.00334 1.26897e-17
6367.00324 1.26893e-17
6368.00314 1.26524e-17
6369.00304 1.26885e-17
6370.00294 1.26880e-17
6371.00284 1.26876e-17
6372.00274 1.26872e-17
6373.00264 1.26868e-17
6374.00254 1.26499e-17
6375.00244 1.28842e-17
6376.00234 1.35522e-17
6377.00224 1.38686e-17
6378.00214 1.38681e-17
6379.00204 1.41758e-17
6380.00194 1.41863e-17
6381.00184 1.41858e-17
6382.00174 1.41744e-17
6383.00164 1.41849e-17
6384.00154 1.41845e-17
6385.00144 1.41840e-17
6386.00134 1.46383e-17
6387.00124 1.46379e-17
6388.00114 1.41826e-17
6389.00104 1.37356e-17
6390.00094 1.34476e-17
6391.00084 1.34471e-17
6392.00074 1.41362e-17
6393.00064 1.43928e-17
6394.00054 1.43923e-17
6395.00044 1.43919e-17
6396.00034 1.43914e-17
6397.00024 1.41339e-17
6398.00014 1.43905e-17
6399.00004 1.43900e-17
6399.99994 1.43896e-17
6400.99984 1.43891e-17
6401.99974 1.45028e-17
6402.99964 1.47564e-17
6403.99954 1.47559e-17
6404.99944 1.47554e-17
6405.99934 1.47549e-17
6406.99924 1.47545e-17
6407.99914 1.46349e-17
6408.99904 1.47535e-17
6409.99894 1.54985e-17
6410.99884 1.54980e-17
6411.99874 1.54975e-17
6412.99864 1.54970e-17
6413.99854 1.54965e-17
6414.99844 1.53217e-17
6415.99834 1.53306e-17
6416.99824 1.53301e-17
6417.99814 1.53202e-17
6418.99804 1.53291e-17
6419.99794 1.53286e-17
6420.99784 1.53281e-17
6421.99774 1.53276e-17
6422.99764 1.56535e-17
6423.99754 1.57675e-17
6424.99744 1.58233e-17
6425.99734 1.67583e-17
6426.99724 1.68898e-17
6427.99714 1.69742e-17
6428.99704 1.69769e-17
6429.99694 1.70098e-17
6430.99684 1.70092e-17
6431.99674 1.79892e-17
6432.99664 1.80111e-17
6433.99654 1.80105e-17
6434.99644 1.81959e-17
6435.99634 1.81953e-17
6436.99624 1.79864e-17
6437.99614 1.78759e-17
6438.99604 1.78463e-17
6439.99594 1.78748e-17
6440.99584 1.78742e-17
6441.99574 1.78736e-17
6442.99564 1.78731e-17
6443.99554 1.78434e-17
6444.99544 1.66618e-17
6445.99534 1.66613e-17
6447.00523 1.67722e-17
6448.00513 1.67717e-17
6449.00504 1.81710e-17
6450.00493 1.81704e-17
6451.00483 1.68229e-17
6452.00473 1.68224e-17
6453.00463 1.68650e-17
6454.00454 1.68645e-17
6455.00443 1.72810e-17
6456.00433 1.72805e-17
6457.00423 1.69936e-17
6458.00414 1.68624e-17
6459.00403 1.68618e-17
6460.00393 1.69920e-17
6461.00383 1.72777e-17
6462.00373 1.72828e-17
6463.00364 1.73021e-17
6464.00353 1.73287e-17
6465.00343 1.73281e-17
6466.00333 1.70794e-17
6467.00324 1.70788e-17
6468.00313 1.70783e-17
6469.00303 1.70777e-17
6470.00293 1.70772e-17
6471.00283 1.69709e-17
6472.00274 1.54912e-17
6473.00263 1.54930e-17
6474.00253 1.54926e-17
6475.00243 1.54921e-17
6476.00234 1.54916e-17
6477.00223 1.54887e-17
6478.00213 1.54906e-17
6479.00203 1.54901e-17
6480.00193 1.68763e-17
6481.00184 1.68758e-17
6482.00173 1.83500e-17
6483.00163 1.83494e-17
6484.00153 1.83488e-17
6485.00144 1.83483e-17
6486.00133 1.83477e-17
6487.00123 1.82487e-17
6488.00113 1.82481e-17
6489.00103 1.82573e-17
6490.00094 1.82470e-17
6491.00083 1.81804e-17
6492.00073 1.80936e-17
6493.00063 1.78653e-17
6494.00054 1.74623e-17
6495.00043 1.74618e-17
6496.00033 1.74612e-17
6497.00023 1.74607e-17
6498.00013 1.74459e-17
6499.00004 1.72918e-17
6499.99993 1.72451e-17
6500.99983 1.72907e-17
6501.99973 1.72902e-17
6502.99964 1.72896e-17
6503.99953 1.72891e-17
6504.99943 1.72749e-17
6505.99933 1.69830e-17
6506.99923 1.69824e-17
6507.99914 1.69819e-17
6508.99903 1.72403e-17
6509.99893 1.74232e-17
6510.99883 1.74339e-17
6511.99874 1.74909e-17
6512.99863 1.74216e-17
6513.99853 1.72986e-17
6514.99843 1.72695e-17
6515.99833 1.71297e-17
6516.99824 1.72969e-17
6517.99813 1.80303e-17
6518.99803 1.80298e-17
6519.99793 1.73747e-17
6520.99784 1.73742e-17
6521.99773 1.72942e-17
6522.99763 1.72937e-17
6523.99753 1.80269e-17
6524.99743 1.80662e-17
6525.99734 1.80656e-17
6526.99723 1.80650e-17
6527.99713 1.80247e-17
6528.99703 1.82810e-17
6529.99694 1.84918e-17
6530.99683 1.85375e-17
6531.99673 1.87722e-17
6532.99663 1.87804e-17
6533.99653 1.83525e-17
6534.99644 1.82776e-17
6535.99633 1.81317e-17
6536.99623 1.81312e-17
6537.99613 1.85688e-17
6538.99604 1.90430e-17
6539.99593 1.87763e-17
6540.99583 1.85670e-17
6541.99573 1.80750e-17
6542.99563 1.80446e-17
6543.99554 1.79960e-17
6544.99543 1.79954e-17
6545.99533 1.75499e-17
6546.99523 1.75232e-17
6547.99514 1.72252e-17
6549.00503 1.72208e-17
6550.00493 1.72241e-17
6551.00483 1.72236e-17
6552.00473 1.72231e-17
6553.00463 1.72225e-17
6554.00453 1.72220e-17
6555.00443 1.72215e-17
6556.00433 1.79981e-17
6557.00423 1.81973e-17
6558.00413 1.83879e-17
6559.00403 1.90035e-17
6560.00393 1.91553e-17
6561.00383 1.90024e-17
6562.00373 1.91541e-17
6563.00363 1.92857e-17
6564.00353 1.92851e-17
6565.00343 1.96231e-17
6566.00333 1.96225e-17
6567.00323 1.96402e-17
6568.00313 1.96213e-17
6569.00303 1.96207e-17
6570.00293 1.96201e-17
6571.00283 1.96428e-17
6572.00273 2.03891e-17
6573.00263 2.03885e-17
6574.00253 1.96410e-17
6575.00243 1.96353e-17
6576.00233 1.96347e-17
6577.00223 1.96341e-17
6578.00213 1.93481e-17
6579.00203 1.89382e-17
6580.00193 1.85219e-17
6581.00183 1.85213e-17
6582.00173 1.85208e-17
6583.00163 1.84738e-17
6584.00153 1.85196e-17
6585.00143 1.85190e-17
6586.00133 1.84721e-17
6587.00123 1.84713e-17
6588.00113 1.82457e-17
6589.00103 1.80626e-17
6590.00093 1.73459e-17
6591.00083 1.80614e-17
6592.00073 1.86123e-17
6593.00063 1.85812e-17
6594.00053 1.84882e-17
6595.00043 1.84668e-17
6596.00033 1.81898e-17
6597.00023 1.81893e-17
6598.00013 1.82043e-17
6599.00003 1.85155e-17
6599.99993 1.85235e-17
6600.99983 1.85766e-17
6601.99973 1.85760e-17
6602.99963 1.85754e-17
6603.99953 1.85212e-17
6604.99943 1.87628e-17
6605.99933 1.87842e-17
6606.99923 1.89808e-17
6607.99913 1.89802e-17
6608.99903 1.90031e-17
6609.99893 1.89790e-17
6610.99883 1.89784e-17
6611.99873 1.89778e-17
6612.99863 1.90012e-17
6613.99853 1.89767e-17
6614.99843 1.89089e-17
6615.99833 1.89083e-17
6616.99823 1.87403e-17
6617.99813 1.87397e-17
6618.99803 1.90044e-17
6619.99793 1.90038e-17
6620.99783 1.89054e-17
6621.99773 1.89048e-17
6622.99763 1.89042e-17
6623.99753 1.89036e-17
6624.99743 1.90009e-17
6625.99733 1.90003e-17
6626.99723 1.88723e-17
6627.99713 1.86663e-17
6628.99703 1.86388e-17
6629.99693 1.86382e-17
6630.99683 1.85876e-17
6631.99673 1.85385e-17
6632.99663 1.84355e-17
6633.99653 1.83146e-17
6634.99643 1.82092e-17
6635.99633 1.82621e-17
6636.99623 1.82615e-17
6637.99613 1.82076e-17
6638.99603 1.80760e-17
6639.99593 1.80754e-17
6640.99583 1.80568e-17
6641.99573 1.80395e-17
6642.99563 1.80305e-17
6643.99553 1.80384e-17
6644.99543 1.80546e-17
6645.99533 1.81128e-17
6647.00523 1.81122e-17
6648.00513 1.80530e-17
6649.00503 1.80271e-17
6650.00493 1.78949e-17
6651.00483 1.66391e-17
6652.00473 1.66386e-17
6653.00463 1.66313e-17
6654.00453 1.66376e-17
6655.00443 1.66371e-17
6656.00433 1.66366e-17
6657.00423 1.66361e-17
6658.00413 1.64575e-17
6659.00403 1.61945e-17
6660.00393 1.61940e-17
6661.00383 1.61935e-17
6662.00373 1.64555e-17
6663.00363 1.67364e-17
6664.00353 1.67359e-17
6665.00343 1.63361e-17
6666.00333 1.59704e-17
6667.00323 1.53202e-17
6668.00313 1.50120e-17
6669.00303 1.50115e-17
6670.00293 1.49264e-17
6671.00283 1.40992e-17
6672.00273 1.42604e-17
6673.00263 1.42599e-17
6674.00253 1.42595e-17
6675.00243 1.42591e-17
6676.00233 1.42586e-17
6677.00223 1.40966e-17
6678.00213 1.42578e-17
6679.00203 1.43883e-17
6680.00193 1.44923e-17
6681.00183 1.45952e-17
6682.00173 1.46218e-17
6683.00163 1.48158e-17
6684.00153 1.48153e-17
6685.00143 1.46308e-17
6686.00133 1.46200e-17
6687.00123 1.45926e-17
6688.00113 1.44627e-17
6689.00103 1.39284e-17
6690.00093 1.36891e-17
6691.00083 1.39276e-17
6692.00073 1.39272e-17
6693.00063 1.39267e-17
6694.00053 1.39263e-17
6695.00043 1.39259e-17
6696.00033 1.36866e-17
6697.00023 1.40968e-17
6698.00013 1.40964e-17
6699.00003 1.40960e-17
6699.99993 1.40955e-17
6700.99983 1.40951e-17
6701.99973 1.38952e-17
6702.99963 1.39669e-17
6703.99953 1.39665e-17
6704.99943 1.39660e-17
6705.99933 1.39656e-17
6706.99923 1.39652e-17
6707.99913 1.38927e-17
6708.99903 1.39222e-17
6709.99893 1.39218e-17
6710.99883 1.39213e-17
6711.99873 1.39280e-17
6712.99863 1.39275e-17
6713.99853 1.39201e-17
6714.99843 1.39196e-17
6715.99833 1.37562e-17
6716.99823 1.36800e-17
6717.99813 1.25798e-17
6718.99803 1.33587e-17
6719.99793 1.33583e-17
6720.99783 1.33579e-17
6721.99773 1.33575e-17
6722.99763 1.33571e-17
6723.99753 1.25774e-17
6724.99743 1.33562e-17
6725.99733 1.36861e-17
6726.99723 1.36857e-17
6727.99713 1.36852e-17
6728.99703 1.36848e-17
6729.99693 1.36844e-17
6730.99683 1.34216e-17
6731.99673 1.31353e-17
6732.99663 1.30362e-17
6733.99653 1.31345e-17
6734.99643 1.31341e-17
6735.99633 1.31337e-17
6736.99623 1.31333e-17
6737.99613 1.31329e-17
6738.99603 1.30338e-17
6739.99593 1.31871e-17
6740.99583 1.31977e-17
6741.99573 1.35369e-17
6742.99563 1.36402e-17
6743.99553 1.49727e-17
6744.99543 1.50117e-17
6745.99533 1.51131e-17
6746.99523 1.51126e-17
6747.99513 1.36847e-17
6749.00503 1.36377e-17
6750.00493 1.36839e-17
6751.00483 1.37311e-17
6752.00473 1.40478e-17
6753.00463 1.49686e-17
6754.00453 1.51094e-17
6755.00443 1.51089e-17
6756.00433 1.51085e-17
6757.00423 1.51207e-17
6758.00413 1.44332e-17
6759.00403 1.58227e-17
6760.00393 1.58222e-17
6761.00383 1.61501e-17
6762.00373 1.61496e-17
6763.00363 1.61491e-17
6764.00353 1.61486e-17
6765.00343 1.61481e-17
6766.00333 1.42138e-17
6767.00323 1.41810e-17
6768.00313 1.34396e-17
6769.00303 1.30723e-17
6770.00293 1.28138e-17
6771.00283 1.22637e-17
6772.00273 1.23995e-17
6773.00263 1.23991e-17
6774.00253 1.23987e-17
6775.00243 1.23983e-17
6776.00233 1.22618e-17
6777.00223 1.21905e-17
6778.00213 1.19354e-17
6779.00203 1.19254e-17
6780.00193 1.19250e-17
6781.00183 1.21890e-17
6782.00173 1.23957e-17
6783.00163 1.19863e-17
6784.00153 1.19860e-17
6785.00143 1.19329e-17
6786.00133 1.19105e-17
6787.00123 1.16904e-17
6788.00113 1.16238e-17
6789.00103 1.16194e-17
6790.00093 1.19090e-17
6791.00083 1.19834e-17
6792.00073 1.19830e-17
6793.00063 1.19827e-17
6794.00053 1.19919e-17
6795.00043 1.16213e-17
6796.00033 1.33942e-17
6797.00023 1.34414e-17
6798.00013 1.34712e-17
6799.00003 1.34405e-17
6799.99993 1.34401e-17
6800.99983 1.34244e-17
6801.99973 1.34031e-17
6802.99963 1.33913e-17
6803.99953 1.34232e-17
6804.99943 1.34228e-17
6805.99933 1.34015e-17
6806.99923 1.33792e-17
6807.99913 1.32752e-17
6808.99903 1.26313e-17
6809.99893 1.26237e-17
6810.99883 1.26093e-17
6811.99873 1.26089e-17
6812.99863 1.26298e-17
6813.99853 1.26321e-17
6814.99843 1.26318e-17
6815.99833 1.26314e-17
6816.99823 1.26310e-17
6817.99813 1.26228e-17
6818.99803 1.26224e-17
6819.99793 1.26220e-17
6820.99783 1.26216e-17
6821.99773 1.26212e-17
6822.99763 1.20640e-17
6823.99753 1.20603e-17
6824.99743 1.20578e-17
6825.99733 1.20542e-17
6826.99723 1.19496e-17
6827.99713 1.20535e-17
6828.99703 1.20531e-17
6829.99693 1.19485e-17
6830.99683 1.18747e-17
6831.99673 1.18743e-17
6832.99663 1.18665e-17
6833.99653 1.15050e-17
6834.99643 1.18182e-17
6835.99633 1.18178e-17
6836.99623 1.18175e-17
6837.99613 1.18171e-17
6838.99603 1.18167e-17
6839.99593 1.15029e-17
6840.99583 1.18160e-17
6841.99573 1.18284e-17
6842.99563 1.19981e-17
6843.99553 1.20130e-17
6844.99543 1.20294e-17
6845.99533 1.20814e-17
6847.00523 1.21209e-17
6848.00513 1.21742e-17
6849.00503 1.21797e-17
6850.00493 1.21793e-17
6851.00483 1.22027e-17
6852.00473 1.22023e-17
6853.00463 1.24445e-17
6854.00453 1.24490e-17
6855.00443 1.25949e-17
6856.00433 1.27075e-17
6857.00423 1.27592e-17
6858.00413 1.27673e-17
6859.00403 1.27669e-17
6860.00393 1.27666e-17
6861.00383 1.27662e-17
6862.00373 1.27573e-17
6863.00363 1.20051e-17
6864.00353 1.19648e-17
6865.00343 1.14442e-17
6866.00333 1.17547e-17
6867.00323 1.17544e-17
6868.00313 1.17540e-17
6869.00303 1.14428e-17
6870.00293 1.10027e-17
6871.00283 1.09952e-17
6872.00273 1.09948e-17
6873.00263 1.10017e-17
6874.00253 1.11670e-17
6875.00243 1.13179e-17
6876.00233 1.13175e-17
6877.00223 1.11241e-17
6878.00213 1.10000e-17
6879.00203 1.09925e-17
6880.00193 1.01339e-17
6881.00183 1.03929e-17
6882.00173 1.03869e-17
6883.00163 1.01330e-17
6884.00153 1.00495e-17
6885.00143 1.00178e-17
6886.00133 1.00175e-17
6887.00123 1.00486e-17
6888.00113 1.01314e-17
6889.00103 1.03625e-17
6890.00093 1.03843e-17
6891.00083 1.03840e-17
6892.00073 1.03837e-17
6893.00063 1.05223e-17
6894.00053 1.05286e-17
6895.00043 1.05283e-17
6896.00033 1.05829e-17
6897.00023 1.07356e-17
6898.00013 1.09046e-17
6899.00003 1.10138e-17
6899.99993 1.10135e-17
6900.99983 1.09036e-17
6901.99973 1.07701e-17
6902.99963 1.07336e-17
6903.99953 1.04677e-17
6904.99943 9.22465e-18
6905.99933 9.41650e-18
6906.99923 9.41621e-18
6907.99913 9.41592e-18
6908.99903 9.41563e-18
6909.99893 9.39135e-18
6910.99883 9.16510e-18
6911.99873 9.06949e-18
6912.99863 8.98231e-18
6913.99853 8.98203e-18
6914.99843 9.05607e-18
6915.99833 9.29794e-18
6916.99823 9.29765e-18
6917.99813 9.29737e-18
6918.99803 9.29708e-18
6919.99793 9.29679e-18
6920.99783 9.06697e-18
6921.99773 9.29622e-18
6922.99763 9.64847e-18
6923.99753 9.91778e-18
6924.99743 9.92357e-18
6925.99733 1.00184e-17
6926.99723 1.02393e-17
6927.99713 1.04777e-17
6928.99703 1.04773e-17
6929.99693 1.02383e-17
6930.99683 1.04767e-17
6931.99673 1.05479e-17
6932.99663 1.05475e-17
6933.99653 1.05472e-17
6934.99643 1.06433e-17
6935.99633 1.09796e-17
6936.99623 1.09820e-17
6937.99613 1.17149e-17
6938.99603 1.17359e-17
6939.99593 1.09783e-17
6940.99583 1.18294e-17
6941.99573 1.19514e-17
6942.99563 1.20186e-17
6943.99553 1.22162e-17
6944.99543 1.24398e-17
6945.99533 1.24394e-17
6946.99523 1.19495e-17
6947.99513 1.19397e-17
6949.00503 1.18265e-17
6950.00493 1.18261e-17
6951.00483 1.19386e-17
6952.00473 1.22132e-17
6953.00463 1.23082e-17
6954.00453 1.23078e-17
6955.00443 1.19371e-17
6956.00433 1.23070e-17
6957.00423 1.23142e-17
6958.00413 1.27805e-17
6959.00403 1.27801e-17
6960.00393 1.23131e-17
6961.00383 1.23051e-17
6962.00373 1.22414e-17
6963.00363 1.23044e-17
6964.00353 1.23116e-17
6965.00343 1.27777e-17
6966.00333 1.27773e-17
6967.00323 1.27769e-17
6968.00313 1.22391e-17
6969.00303 1.24617e-17
6970.00293 1.24690e-17
6971.00283 1.29212e-17
6972.00273 1.29287e-17
6973.00263 1.32541e-17
6974.00253 1.32790e-17
6975.00243 1.32786e-17
6976.00233 1.30091e-17
6977.00223 1.26129e-17
6978.00213 1.24659e-17
6979.00203 1.24656e-17
6980.00193 1.21377e-17
6981.00183 1.23350e-17
6982.00173 1.23346e-17
6983.00163 1.23342e-17
6984.00153 1.23338e-17
6985.00143 1.23335e-17
6986.00133 1.21354e-17
6987.00123 1.23405e-17
6988.00113 1.23401e-17
6989.00103 1.29740e-17
6990.00093 1.29736e-17
6991.00083 1.29732e-17
6992.00073 1.29728e-17
6993.00063 1.29724e-17
6994.00053 1.20097e-17
6995.00043 1.01431e-17
6996.00033 1.06541e-17
6997.00023 1.06538e-17
6998.00013 1.04844e-17
6999.00003 1.04177e-17
6999.99993 1.04174e-17
7000.99983 1.01412e-17
7001.99973 1.04167e-17
7002.99963 1.05050e-17
7003.99953 1.06515e-17
7004.99943 1.06580e-17
7005.99933 1.06577e-17
7006.99923 1.11100e-17
7007.99913 1.11308e-17
7008.99903 1.16735e-17
7009.99893 1.21043e-17
7010.99883 1.21040e-17
7011.99873 1.21036e-17
7012.99863 1.21032e-17
7013.99853 1.21259e-17
7014.99843 1.23455e-17
7015.99833 1.24221e-17
7016.99823 1.24217e-17
7017.99813 1.24213e-17
7018.99803 1.23358e-17
7019.99793 1.21100e-17
7020.99783 1.21097e-17
7021.99773 1.21458e-17
7022.99763 1.21700e-17
7023.99753 1.23943e-17
7024.99743 1.23939e-17
7025.99733 1.23935e-17
7026.99723 1.23931e-17
7027.99713 1.23927e-17
7028.99703 1.21677e-17
7029.99693 1.21673e-17
7030.99683 1.21669e-17
7031.99673 1.21665e-17
7032.99663 1.14391e-17
7033.99653 1.12984e-17
7034.99643 1.14384e-17
7035.99633 1.14380e-17
7036.99623 1.14377e-17
7037.99613 1.14373e-17
7038.99603 1.14370e-17
7039.99593 1.12963e-17
7040.99583 1.15641e-17
7041.99573 1.15637e-17
7042.99563 1.15863e-17
7043.99553 1.16916e-17
7044.99543 1.17465e-17
7045.99533 1.17461e-17
