# wavelength flux
3890.00096 -1.23370e-19
3891.00086 -2.69264e-19
3892.00076 -6.71111e-19
3893.00066 -5.25185e-19
3894.00056 1.34490e-18
3895.00046 1.34482e-18
3896.00036 1.58787e-18
3897.00026 -1.23315e-19
3898.00016 2.37896e-18
3899.00006 4.31031e-18
3899.99996 3.34974e-18
3900.99986 3.30415e-18
3901.99976 3.20352e-18
3902.99966 3.80895e-18
3903.99956 3.80871e-18
3904.99946 6.19560e-18
3905.99936 5.69007e-18
3906.99926 6.42593e-18
3907.99916 6.19442e-18
3908.99906 9.28610e-18
3909.99896 9.66657e-18
3910.99886 9.66596e-18
3911.99876 9.66535e-18
3912.99866 9.83046e-18
3913.99856 1.00935e-17
3914.99846 9.77999e-18
3915.99836 1.00922e-17
3916.99826 8.81254e-18
3917.99816 1.00920e-17
3918.99806 1.04042e-17
3919.99796 1.00908e-17
3920.99786 1.00890e-17
3921.99776 1.08561e-17
3922.99766 1.10735e-17
3923.99756 9.10328e-18
3924.99746 7.95567e-18
3925.99736 8.37894e-18
3926.99726 6.78890e-18
3927.99716 8.04221e-18
3928.99706 8.02969e-18
3929.99696 8.13609e-18
3930.99686 8.24377e-18
3931.99676 8.53927e-18
3932.99666 8.53874e-18
3933.99656 8.83349e-18
3934.99646 8.53768e-18
3935.99636 8.13798e-18
3936.99626 7.88184e-18
3937.99616 7.25355e-18
3938.99606 8.03602e-18
3939.99596 9.27128e-18
3940.99586 9.27071e-18
3941.99576 9.90330e-18
3942.99566 9.08597e-18
3943.99556 9.90208e-18
3944.99546 9.45739e-18
3945.99536 9.45682e-18
3946.99526 8.85229e-18
3948.00516 8.44109e-18
3949.00506 8.72677e-18
3950.00496 8.45303e-18
3951.00486 8.97943e-18
3952.00476 6.88312e-18
3953.00466 8.97834e-18
3954.00456 9.29705e-18
3955.00446 9.49965e-18
3956.00436 9.40723e-18
3957.00426 9.38719e-18
3958.00416 9.11717e-18
3959.00406 9.13294e-18
3960.00396 6.72601e-18
3961.00386 6.26396e-18
3962.00376 6.07497e-18
3963.00366 4.90184e-18
3964.00356 4.76507e-18
3965.00346 4.23770e-18
3966.00336 4.23744e-18
3967.00326 3.99776e-18
3968.00316 4.23693e-18
3969.00306 3.74615e-18
3970.00296 2.02267e-18
3971.00286 9.63561e-19
3972.00276 1.06645e-18
3973.00266 1.00794e-18
3974.00256 1.00787e-18
3975.00246 2.16040e-18
3976.00236 2.16027e-18
3977.00226 2.16014e-18
3978.00216 2.06763e-18
3979.00206 2.15988e-18
3980.00196 9.15147e-19
3981.00186 1.87075e-18
3982.00176 6.06370e-18
3983.00166 6.16204e-18
3984.00156 6.14591e-18
3985.00146 6.44851e-18
3986.00136 6.14518e-18
3987.00126 6.14482e-18
3988.00116 6.75328e-18
3989.00106 6.43641e-18
3990.00096 6.47086e-18
3991.00086 6.12429e-18
3992.00076 6.02527e-18
3993.00066 6.02492e-18
3994.00056 6.12320e-18
3995.00046 5.01571e-18
3996.00036 3.68945e-18
3997.00026 5.11619e-18
3998.00016 4.57052e-18
3999.00006 4.74604e-18
3999.99996 4.87358e-18
4000.99986 4.34079e-18
4001.99976 4.35440e-18
4002.99966 5.64493e-18
4003.99956 5.87571e-18
4004.99946 5.34886e-18
4005.99936 5.63007e-18
4006.99926 5.16216e-18
4007.99916 5.51550e-18
4008.99906 5.70180e-18
4009.99896 5.76885e-18
4010.99886 5.76851e-18
4011.99876 5.76817e-18
4012.99866 7.26306e-18
4013.99856 7.60726e-18
4014.99846 7.82477e-18
4015.99836 7.09402e-18
4016.99826 6.87568e-18
4017.99816 7.09319e-18
4018.99806 7.88019e-18
4019.99796 8.00525e-18
4020.99786 7.51944e-18
4021.99776 7.64451e-18
4022.99766 8.18252e-18
4023.99756 8.26947e-18
4024.99746 9.00810e-18
4025.99736 9.00758e-18
4026.99726 8.51614e-18
4027.99716 8.36343e-18
4028.99706 9.15820e-18
4029.99696 9.00548e-18
4030.99686 9.25310e-18
4031.99676 9.90721e-18
4032.99666 9.50005e-18
4033.99656 9.90606e-18
4034.99646 9.75333e-18
4035.99636 1.01304e-17
4036.99626 9.95174e-18
4037.99616 9.74690e-18
4038.99606 9.74633e-18
4039.99596 1.10704e-17
4040.99586 1.18296e-17
4041.99576 1.18290e-17
4042.99566 1.14466e-17
4043.99556 1.10678e-17
4044.99546 1.10671e-17
4045.99536 1.14860e-17
4046.99526 1.14854e-17
4048.00516 1.10880e-17
4049.00506 1.05923e-17
4050.00496 1.10867e-17
4051.00486 1.15848e-17
4052.00476 1.27176e-17
4053.00466 1.27169e-17
4054.00456 1.16132e-17
4055.00446 1.16125e-17
4056.00436 1.08739e-17
4057.00426 1.08733e-17
4058.00416 1.08727e-17
4059.00406 1.13143e-17
4060.00396 1.05174e-17
4061.00386 1.07311e-17
4062.00376 1.08477e-17
4063.00366 1.06684e-17
4064.00356 1.07292e-17
4065.00346 1.10317e-17
4066.00336 1.10311e-17
4067.00326 1.10952e-17
4068.00316 1.10946e-17
4069.00306 1.04209e-17
4070.00296 1.04203e-17
4071.00286 1.03876e-17
4072.00276 1.02315e-17
4073.00266 1.03864e-17
4074.00256 1.04634e-17
4075.00246 1.04628e-17
4076.00236 1.04225e-17
4077.00226 1.08373e-17
4078.00216 1.06891e-17
4079.00206 1.09319e-17
4080.00196 1.09313e-17
4081.00186 1.04130e-17
4082.00176 1.05223e-17
4083.00166 1.05217e-17
4084.00156 1.05211e-17
4085.00146 1.00302e-17
4086.00136 1.06605e-17
4087.00126 1.07578e-17
4088.00116 1.07884e-17
4089.00106 1.06861e-17
4090.00096 1.06452e-17
4091.00086 1.06849e-17
4092.00076 1.08249e-17
4093.00066 1.07853e-17
4094.00056 1.08417e-17
4095.00046 1.06958e-17
4096.00036 1.07522e-17
4097.00026 1.07829e-17
4098.00016 1.06403e-17
4099.00006 1.04972e-17
4099.99996 1.04533e-17
4100.99986 1.04306e-17
4101.99976 9.22506e-18
4102.99966 9.33974e-18
4103.99956 9.22731e-18
4104.99946 8.95402e-18
4105.99936 9.14121e-18
4106.99926 8.95299e-18
4107.99916 8.50665e-18
4108.99906 8.68913e-18
4109.99896 8.56096e-18
4110.99886 8.30477e-18
4111.99876 8.33079e-18
4112.99866 8.37656e-18
4113.99856 7.80488e-18
4114.99846 8.32935e-18
4115.99836 7.91543e-18
4116.99826 7.53697e-18
4117.99816 7.94538e-18
4118.99806 7.12624e-18
4119.99796 7.19239e-18
4120.99786 7.26664e-18
4121.99776 7.12501e-18
4122.99766 6.99062e-18
4123.99756 8.08383e-18
4124.99746 8.39821e-18
4125.99736 7.87102e-18
4126.99726 7.94884e-18
4127.99716 8.39676e-18
4128.99706 8.53927e-18
4129.99696 8.72166e-18
4130.99686 8.81897e-18
4131.99676 9.35037e-18
4132.99666 9.75443e-18
4133.99656 9.57878e-18
4134.99646 9.59269e-18
4135.99636 9.49716e-18
4136.99626 8.75660e-18
4137.99616 9.32100e-18
4138.99606 9.32046e-18
4139.99596 9.10875e-18
4140.99586 9.05691e-18
4141.99576 9.64013e-18
4142.99566 9.30653e-18
4143.99556 1.02808e-17
4144.99546 1.02806e-17
4145.99536 9.30492e-18
4147.00526 9.36717e-18
4148.00516 8.81838e-18
4149.00506 8.86601e-18
4150.00496 9.10350e-18
4151.00486 9.10297e-18
4152.00476 9.40301e-18
4153.00466 9.40246e-18
4154.00456 9.92825e-18
4155.00446 9.68442e-18
4156.00436 9.65614e-18
4157.00426 8.98043e-18
4158.00416 8.76857e-18
4159.00406 9.04240e-18
4160.00396 9.04188e-18
4161.00386 9.04136e-18
4162.00376 8.17079e-18
4163.00366 8.17032e-18
4164.00356 8.01493e-18
4165.00346 8.24328e-18
4166.00336 8.27942e-18
4167.00326 8.39478e-18
4168.00316 8.39429e-18
4169.00306 8.42813e-18
4170.00296 8.50153e-18
4171.00286 8.11829e-18
4172.00276 8.10126e-18
4173.00266 7.20958e-18
4174.00256 7.20916e-18
4175.00246 7.18851e-18
4176.00236 7.20833e-18
4177.00226 6.95835e-18
4178.00216 7.36846e-18
4179.00206 7.31053e-18
4180.00196 7.37579e-18
4181.00186 7.63305e-18
4182.00176 7.63260e-18
4183.00166 7.64034e-18
4184.00156 7.01991e-18
4185.00146 7.01950e-18
4186.00136 6.87268e-18
4187.00126 6.87227e-18
4188.00116 7.24598e-18
4189.00106 7.30627e-18
4190.00096 7.24514e-18
4191.00086 6.99820e-18
4192.00076 7.42652e-18
4193.00066 7.24387e-18
4194.00056 7.12321e-18
4195.00046 7.12279e-18
4196.00036 6.68888e-18
4197.00026 6.68849e-18
4198.00016 6.59942e-18
4199.00006 6.30811e-18
4199.99996 6.23940e-18
4200.99986 6.51797e-18
4201.99976 6.43780e-18
4202.99966 6.37463e-18
4203.99956 6.40833e-18
4204.99946 4.89461e-18
4205.99936 4.89432e-18
4206.99926 4.72957e-18
4207.99916 4.59559e-18
4208.99906 4.59532e-18
4209.99896 4.72891e-18
4210.99886 4.56353e-18
4211.99876 4.27785e-18
4212.99866 4.53285e-18
4213.99856 4.29798e-18
4214.99846 4.46772e-18
4215.99836 4.51102e-18
4216.99826 3.67463e-18
4217.99816 3.24398e-18
4218.99806 3.49032e-18
4219.99796 3.49011e-18
4220.99786 3.64259e-18
4221.99776 3.77406e-18
4222.99766 3.60559e-18
4223.99756 3.57738e-18
4224.99746 3.60516e-18
4225.99736 3.28316e-18
4226.99726 3.28296e-18
4227.99716 3.57653e-18
4228.99706 3.57632e-18
4229.99696 3.57611e-18
4230.99686 4.14210e-18
4231.99676 4.14185e-18
4232.99666 4.57787e-18
4233.99656 4.90789e-18
4234.99646 4.30191e-18
4235.99636 4.30165e-18
4236.99626 4.55057e-18
4237.99616 5.15588e-18
4238.99606 4.55003e-18
4239.99596 4.90980e-18
4240.99586 4.90056e-18
4241.99576 4.82968e-18
4242.99566 4.92806e-18
4243.99556 5.27910e-18
4244.99546 5.27879e-18
4245.99536 5.33814e-18
4246.99526 5.43961e-18
4247.99516 5.44358e-18
4248.99506 5.44326e-18
4250.00496 5.44293e-18
4251.00486 5.44261e-18
4252.00476 5.43799e-18
4253.00466 5.55976e-18
4254.00456 6.15419e-18
4255.00446 5.99331e-18
4256.00436 6.04050e-18
4257.00426 5.72016e-18
4258.00416 6.13342e-18
4259.00406 5.58197e-18
4260.00396 5.58163e-18
4261.00386 5.53204e-18
4262.00376 5.40809e-18
4263.00366 5.53138e-18
4264.00356 5.71067e-18
4265.00346 6.23543e-18
4266.00336 6.23506e-18
4267.00326 6.43588e-18
4268.00316 6.44411e-18
4269.00306 6.78235e-18
4270.00296 6.58843e-18
4271.00286 6.70153e-18
4272.00276 6.79829e-18
4273.00266 7.16885e-18
4274.00256 7.34099e-18
4275.00246 7.24240e-18
4276.00236 6.95104e-18
4277.00226 6.95062e-18
4278.00216 7.17891e-18
4279.00206 7.56746e-18
4280.00196 7.49564e-18
4281.00186 7.20718e-18
4282.00176 7.93180e-18
4283.00166 7.98364e-18
4284.00156 7.86075e-18
4285.00146 7.98267e-18
4286.00136 8.19784e-18
4287.00126 8.36114e-18
4288.00116 8.48511e-18
4289.00106 8.43216e-18
4290.00096 8.49159e-18
4291.00086 8.47771e-18
4292.00076 9.28742e-18
4293.00066 9.28686e-18
4294.00056 9.25161e-18
4295.00046 8.44419e-18
4296.00036 9.13722e-18
4297.00026 9.68237e-18
4298.00016 9.13288e-18
4299.00006 8.93728e-18
4299.99996 8.93352e-18
4300.99986 9.08264e-18
4301.99976 9.51457e-18
4302.99966 9.49471e-18
4303.99956 9.60365e-18
4304.99946 8.96400e-18
4305.99936 9.16505e-18
4306.99926 8.85340e-18
4307.99916 8.32192e-18
4308.99906 8.10097e-18
4309.99896 8.32090e-18
4310.99886 8.57779e-18
4311.99876 8.77537e-18
4312.99866 8.97634e-18
4313.99856 8.45094e-18
4314.99846 8.55987e-18
4315.99836 8.56271e-18
4316.99826 8.21032e-18
4317.99816 8.22635e-18
4318.99806 8.05902e-18
4319.99796 8.13403e-18
4320.99786 8.17958e-18
4321.99776 9.08127e-18
4322.99766 8.88144e-18
4323.99756 8.83485e-18
4324.99746 8.88034e-18
4325.99736 8.09466e-18
4326.99726 8.17654e-18
4327.99716 8.17603e-18
4328.99706 7.83461e-18
4329.99696 8.20251e-18
4330.99686 9.24483e-18
4331.99676 9.45749e-18
4332.99666 9.47646e-18
4333.99656 9.80447e-18
4334.99646 9.84314e-18
4335.99636 9.72944e-18
4336.99626 9.80264e-18
4337.99616 8.99031e-18
4338.99606 9.02323e-18
4339.99596 8.67699e-18
4340.99586 8.75024e-18
4341.99576 9.10177e-18
4342.99566 9.21010e-18
4343.99556 9.66366e-18
4344.99546 9.65563e-18
4345.99536 9.20545e-18
4347.00526 8.93001e-18
4348.00516 9.01523e-18
4349.00506 8.85514e-18
4350.00496 8.70431e-18
4351.00486 8.86327e-18
4352.00476 8.86271e-18
4353.00466 9.01240e-18
4354.00456 9.24882e-18
4355.00446 9.70206e-18
4356.00436 9.70145e-18
4357.00426 9.70084e-18
4358.00416 9.32335e-18
4359.00406 9.33125e-18
4360.00396 9.33067e-18
4361.00386 9.82090e-18
4362.00376 9.32949e-18
4363.00366 9.11402e-18
4364.00356 9.60417e-18
4365.00346 9.04083e-18
4366.00336 8.57226e-18
4367.00326 8.35491e-18
4368.00316 8.19497e-18
4369.00306 7.96365e-18
4370.00296 7.83670e-18
4371.00286 7.96264e-18
4372.00276 7.27280e-18
4373.00266 7.27234e-18
4374.00256 6.31371e-18
4375.00246 6.12200e-18
4376.00236 6.12161e-18
4377.00226 5.92426e-18
4378.00216 5.76510e-18
4379.00206 5.58184e-18
4380.00196 5.71745e-18
4381.00186 5.71708e-18
4382.00176 5.41728e-18
4383.00166 5.04276e-18
4384.00156 4.88029e-18
4385.00146 4.87672e-18
4386.00136 4.43226e-18
4387.00126 4.28891e-18
4388.00116 4.24406e-18
4389.00106 4.24379e-18
4390.00096 4.43363e-18
4391.00086 4.25133e-18
4392.00076 4.37787e-18
4393.00066 4.37759e-18
4394.00056 3.90896e-18
4395.00046 3.58165e-18
4396.00036 3.72116e-18
4397.00026 3.67791e-18
4398.00016 3.67768e-18
4399.00006 4.09072e-18
4399.99996 3.93349e-18
4400.99986 3.58027e-18
4401.99976 3.83426e-18
4402.99966 4.03100e-18
4403.99956 3.85056e-18
4404.99946 4.15158e-18
4405.99936 4.25177e-18
4406.99926 4.25150e-18
4407.99916 5.30150e-18
4408.99906 5.46596e-18
4409.99896 5.49992e-18
4410.99886 5.46525e-18
4411.99876 5.49921e-18
4412.99866 5.45810e-18
4413.99856 5.49849e-18
4414.99846 5.49814e-18
4415.99836 5.60938e-18
4416.99826 5.65684e-18
4417.99816 5.75655e-18
4418.99806 6.39831e-18
4419.99796 6.17653e-18
4420.99786 6.39748e-18
4421.99776 6.38479e-18
4422.99766 6.07246e-18
4423.99756 6.07206e-18
4424.99746 5.81567e-18
4425.99736 5.74001e-18
4426.99726 5.32920e-18
4427.99716 5.32885e-18
4428.99706 5.28914e-18
4429.99696 5.75793e-18
4430.99686 5.73814e-18
4431.99676 5.14316e-18
4432.99666 5.24929e-18
4433.99656 5.10403e-18
4434.99646 5.04896e-18
4435.99636 5.10336e-18
4436.99626 4.99184e-18
4437.99616 5.08622e-18
4438.99606 5.18789e-18
4439.99596 5.32466e-18
4440.99586 5.26498e-18
4441.99576 5.41985e-18
4442.99566 5.49846e-18
4443.99556 5.18619e-18
4444.99546 5.48722e-18
4445.99536 5.67966e-18
4446.99526 5.56544e-18
4447.99516 5.67891e-18
4448.99506 5.67854e-18
4450.00495 6.10325e-18
4451.00486 5.89118e-18
4452.00475 6.10245e-18
4453.00465 6.18335e-18
4454.00455 6.08271e-18
4455.00446 6.36503e-18
4456.00436 6.94529e-18
4457.00425 6.94483e-18
4458.00415 6.44302e-18
4459.00405 6.93777e-18
4460.00396 6.80767e-18
4461.00385 6.78199e-18
4462.00375 6.28646e-18
4463.00365 5.99674e-18
4464.00356 6.28562e-18
4465.00346 6.28520e-18
4466.00335 6.51107e-18
4467.00325 6.44531e-18
4468.00315 6.44488e-18
4469.00306 6.41088e-18
4470.00295 6.54107e-18
4471.00285 6.45506e-18
4472.00275 6.01509e-18
4473.00266 6.01469e-18
4474.00256 6.09739e-18
4475.00245 6.09944e-18
4476.00235 6.09903e-18
4477.00225 6.01308e-18
4478.00216 6.01428e-18
4479.00205 6.25909e-18
4480.00195 6.45118e-18
4481.00185 6.38687e-18
4482.00176 6.38644e-18
4483.00166 6.54725e-18
4484.00155 6.78433e-18
4485.00145 6.95996e-18
4486.00135 6.88923e-18
4487.00126 7.02638e-18
4488.00115 6.88830e-18
4489.00105 7.02544e-18
4490.00095 6.86917e-18
4491.00086 6.86871e-18
4492.00076 7.24697e-18
4493.00065 7.16965e-18
4494.00055 7.10183e-18
4495.00045 7.18688e-18
4496.00036 7.10088e-18
4497.00025 7.29534e-18
4498.00015 7.29484e-18
4499.00005 6.83155e-18
4499.99996 6.83109e-18
4500.99986 7.85010e-18
4501.99975 7.72627e-18
4502.99965 7.17039e-18
4503.99955 7.16991e-18
4504.99946 7.29739e-18
4505.99935 7.50846e-18
4506.99925 7.86847e-18
4507.99915 8.16321e-18
4508.99906 8.16265e-18
4509.99896 8.47500e-18
4510.99885 8.57148e-18
4511.99875 8.57090e-18
4512.99865 8.57032e-18
4513.99856 8.55514e-18
4514.99845 8.44023e-18
4515.99835 8.44972e-18
4516.99825 8.44914e-18
4517.99816 8.66069e-18
4518.99806 8.61486e-18
4519.99795 8.80503e-18
4520.99785 9.37153e-18
4521.99775 9.37861e-18
4522.99766 9.52218e-18
4523.99755 9.14616e-18
4524.99745 9.32811e-18
4525.99735 8.91567e-18
4526.99726 9.64626e-18
4527.99716 9.41450e-18
4528.99705 9.65216e-18
4529.99695 9.77160e-18
4530.99685 1.01731e-17
4531.99676 1.03418e-17
4532.99665 1.07565e-17
4533.99655 1.06448e-17
4534.99645 1.06441e-17
4535.99636 1.08878e-17
4536.99626 1.09014e-17
4537.99615 1.08612e-17
4538.99605 1.09728e-17
4539.99596 1.10359e-17
4540.99586 1.12796e-17
4541.99575 1.15501e-17
4542.99565 1.17412e-17
4543.99555 1.18546e-17
4544.99546 1.16336e-17
4545.99536 1.16669e-17
4546.99525 1.18580e-17
4548.00515 1.18572e-17
4549.00505 1.18563e-17
4550.00495 1.18837e-17
4551.00485 1.20604e-17
4552.00475 1.23188e-17
4553.00465 1.25394e-17
4554.00455 1.24285e-17
4555.00445 1.24277e-17
4556.00435 1.29274e-17
4557.00425 1.27998e-17
4558.00415 1.27990e-17
4559.00405 1.27981e-17
4560.00395 1.27769e-17
4561.00385 1.28860e-17
4562.00375 1.30271e-17
4563.00365 1.30723e-17
4564.00355 1.31618e-17
4565.00345 1.33848e-17
4566.00335 1.33905e-17
4567.00325 1.33829e-17
4568.00315 1.34923e-17
4569.00305 1.36264e-17
4570.00295 1.35240e-17
4571.00285 1.35231e-17
4572.00275 1.39176e-17
4573.00265 1.44215e-17
4574.00255 1.44836e-17
4575.00245 1.44195e-17
4576.00235 1.44185e-17
4577.00225 1.44175e-17
4578.00215 1.45268e-17
4579.00205 1.47744e-17
4580.00195 1.46216e-17
4581.00185 1.45703e-17
4582.00175 1.46918e-17
4583.00165 1.47410e-17
4584.00155 1.47221e-17
4585.00145 1.46458e-17
4586.00135 1.45034e-17
4587.00125 1.42971e-17
4588.00115 1.42536e-17
4589.00105 1.41018e-17
4590.00095 1.40890e-17
4591.00085 1.41285e-17
4592.00075 1.44192e-17
4593.00065 1.44182e-17
4594.00055 1.47366e-17
4595.00045 1.45444e-17
4596.00035 1.45220e-17
4597.00025 1.44805e-17
4598.00015 1.41859e-17
4599.00005 1.40168e-17
4599.99995 1.40101e-17
4600.99985 1.38341e-17
4601.99975 1.38854e-17
4602.99965 1.38321e-17
4603.99955 1.43274e-17
4604.99945 1.45183e-17
4605.99935 1.47148e-17
4606.99925 1.45163e-17
4607.99915 1.44580e-17
4608.99905 1.38360e-17
4609.99895 1.38005e-17
4610.99885 1.34789e-17
4611.99875 1.23065e-17
4612.99865 1.21945e-17
4613.99855 1.20322e-17
4614.99845 1.18123e-17
4615.99835 1.17843e-17
4616.99825 1.18161e-17
4617.99815 1.18451e-17
4618.99805 1.21894e-17
4619.99795 1.18294e-17
4620.99785 1.16953e-17
4621.99775 1.17056e-17
4622.99765 1.16841e-17
4623.99755 1.15798e-17
4624.99745 1.15373e-17
4625.99735 1.14070e-17
4626.99725 1.11201e-17
4627.99715 1.11964e-17
4628.99705 1.12282e-17
4629.99695 1.06684e-17
4630.99685 1.04449e-17
4631.99675 1.03042e-17
4632.99665 1.03157e-17
4633.99655 1.05237e-17
4634.99645 1.05229e-17
4635.99635 1.03959e-17
4636.99625 1.05090e-17
4637.99615 1.05082e-17
4638.99605 1.05533e-17
4639.99595 1.07624e-17
4640.99585 1.03801e-17
4641.99575 1.03793e-17
4642.99565 1.08156e-17
4643.99555 1.09532e-17
4644.99545 1.10797e-17
4645.99535 1.08133e-17
4646.99525 1.09869e-17
4647.99515 1.09861e-17
4648.99505 1.07453e-17
4650.00495 1.05981e-17
4651.00485 1.06334e-17
4652.00475 1.10257e-17
4653.00465 1.10249e-17
4654.00455 1.10851e-17
4655.00445 1.10843e-17
4656.00435 1.17513e-17
4657.00425 1.17402e-17
4658.00415 1.17394e-17
4659.00405 1.09962e-17
4660.00395 1.08907e-17
4661.00385 1.09117e-17
4662.00375 1.09109e-17
4663.00365 1.16893e-17
4664.00355 1.19233e-17
4665.00345 1.21329e-17
4666.00335 1.21320e-17
4667.00325 1.21609e-17
4668.00315 1.21600e-17
4669.00305 1.18185e-17
4670.00295 1.18132e-17
4671.00285 1.10768e-17
4672.00275 1.09548e-17
4673.00265 1.07773e-17
4674.00255 1.07249e-17
4675.00245 1.06214e-17
4676.00235 1.05884e-17
4677.00225 1.07477e-17
4678.00215 1.04687e-17
4679.00205 1.08840e-17
4680.00195 1.07232e-17
4681.00185 1.04315e-17
4682.00175 1.02644e-17
4683.00165 1.02626e-17
4684.00155 1.00851e-17
4685.00145 1.01237e-17
4686.00135 1.01590e-17
4687.00125 9.82633e-18
4688.00115 9.86162e-18
4689.00105 1.00169e-17
4690.00095 9.98024e-18
4691.00085 9.68660e-18
4692.00075 9.55755e-18
4693.00065 9.40093e-18
4694.00055 9.27389e-18
4695.00045 9.18997e-18
4696.00035 8.98514e-18
4697.00025 8.98450e-18
4698.00015 8.91511e-18
4699.00005 8.41612e-18
4699.99995 8.42489e-18
4700.99985 8.24135e-18
4701.99975 7.47560e-18
4702.99965 7.46594e-18
4703.99955 6.91269e-18
4704.99945 6.40225e-18
4705.99935 6.33581e-18
4706.99925 5.75613e-18
4707.99915 5.46097e-18
4708.99905 5.43681e-18
4709.99895 5.26775e-18
4710.99885 5.22829e-18
4711.99875 5.15243e-18
4712.99865 5.12648e-18
4713.99855 5.02215e-18
4714.99845 4.71582e-18
4715.99835 4.62371e-18
4716.99825 4.60844e-18
4717.99815 4.37008e-18
4718.99805 3.82509e-18
4719.99795 3.63495e-18
4720.99785 3.63469e-18
4721.99775 3.65456e-18
4722.99765 3.76406e-18
4723.99755 3.76379e-18
4724.99745 3.81527e-18
4725.99735 3.87539e-18
4726.99725 3.87511e-18
4727.99715 3.87483e-18
4728.99705 3.65473e-18
4729.99695 3.97576e-18
4730.99685 3.91463e-18
4731.99675 4.56195e-18
4732.99665 4.81918e-18
4733.99655 5.13281e-18
4734.99645 5.27728e-18
4735.99635 5.44653e-18
4736.99625 5.54089e-18
4737.99615 5.88368e-18
4738.99605 6.03498e-18
4739.99595 6.23656e-18
4740.99585 6.48618e-18
4741.99575 6.94079e-18
4742.99565 7.23243e-18
4743.99555 7.20291e-18
4744.99545 7.39420e-18
4745.99535 7.50282e-18
4746.99525 7.89541e-18
4748.00515 7.92096e-18
4749.00505 8.18487e-18
4750.00495 8.28349e-18
4751.00485 8.56921e-18
4752.00475 9.08540e-18
4753.00465 9.08474e-18
4754.00455 8.95479e-18
4755.00445 8.78461e-18
4756.00435 8.78716e-18
4757.00425 9.00182e-18
4758.00415 8.78106e-18
4759.00405 8.78902e-18
4760.00395 9.15693e-18
4761.00385 9.28550e-18
4762.00375 9.53996e-18
4763.00365 9.53927e-18
4764.00355 9.53858e-18
4765.00345 9.75510e-18
4766.00335 9.84801e-18
4767.00325 9.65726e-18
4768.00315 9.63627e-18
4769.00305 9.43871e-18
4770.00295 9.73129e-18
4771.00285 9.85361e-18
4772.00275 9.85290e-18
4773.00265 9.82786e-18
4774.00255 9.99891e-18
4775.00245 9.98695e-18
4776.00235 9.92626e-18
4777.00225 9.92555e-18
4778.00215 9.90931e-18
4779.00205 9.89087e-18
4780.00195 9.94758e-18
4781.00185 1.00377e-17
4782.00175 9.91010e-18
4783.00165 1.00051e-17
4784.00155 1.00980e-17
4785.00145 1.04156e-17
4786.00135 1.05084e-17
4787.00125 1.06823e-17
4788.00115 1.07170e-17
4789.00105 1.06807e-17
4790.00095 1.07146e-17
4791.00085 1.06233e-17
4792.00075 1.06758e-17
4793.00065 1.07350e-17
4794.00055 1.07342e-17
4795.00045 1.08526e-17
4796.00035 1.10232e-17
4797.00025 1.10613e-17
4798.00015 1.10216e-17
4799.00005 1.11192e-17
4799.99995 1.10002e-17
4800.99985 1.09843e-17
4801.99975 1.11466e-17
4802.99965 1.11701e-17
4803.99955 1.11565e-17
4804.99945 1.13762e-17
4805.99935 1.13810e-17
4806.99925 1.14429e-17
4807.99915 1.15126e-17
4808.99905 1.15450e-17
4809.99895 1.15442e-17
4810.99885 1.15434e-17
4811.99875 1.17054e-17
4812.99865 1.17045e-17
4813.99855 1.17037e-17
4814.99845 1.16746e-17
4815.99835 1.16591e-17
4816.99825 1.16583e-17
4817.99815 1.15102e-17
4818.99805 1.10080e-17
4819.99795 1.07573e-17
4820.99785 1.04506e-17
4821.99775 9.86527e-18
4822.99765 9.35026e-18
4823.99755 9.15906e-18
4824.99745 9.02765e-18
4825.99735 9.02699e-18
4826.99725 8.88393e-18
4827.99715 8.78284e-18
4828.99705 8.71096e-18
4829.99695 8.57939e-18
4830.99685 8.59600e-18
4831.99675 8.48936e-18
4832.99665 8.34586e-18
4833.99655 8.32587e-18
4834.99645 8.29973e-18
4835.99635 8.48690e-18
4836.99625 8.48628e-18
4837.99615 8.48567e-18
4838.99605 8.49537e-18
4839.99595 8.64064e-18
4840.99585 8.84302e-18
4841.99575 8.97460e-18
4842.99565 8.98071e-18
4843.99555 9.20230e-18
4844.99545 9.26744e-18
4845.99535 9.31954e-18
4846.99525 9.38548e-18
4847.99515 9.38192e-18
4848.99505 9.57560e-18
4850.00495 9.73965e-18
4851.00485 9.99415e-18
4852.00475 1.01317e-17
4853.00465 1.01060e-17
4854.00455 1.00688e-17
4855.00445 1.01299e-17
4856.00435 1.01038e-17
4857.00425 1.03724e-17
4858.00415 1.04993e-17
4859.00405 1.05213e-17
4860.00395 1.06979e-17
4861.00385 1.06971e-17
4862.00375 1.07879e-17
4863.00365 1.09928e-17
4864.00355 1.09920e-17
4865.00345 1.10907e-17
4866.00335 1.11103e-17
4867.00325 1.12360e-17
4868.00315 1.10662e-17
4869.00305 1.10486e-17
4870.00295 1.11947e-17
4871.00285 1.12959e-17
4872.00275 1.14306e-17
4873.00265 1.14688e-17
4874.00255 1.15094e-17
4875.00245 1.15617e-17
4876.00235 1.15245e-17
4877.00225 1.13840e-17
4878.00215 1.12318e-17
4879.00205 1.11211e-17
4880.00195 1.11628e-17
4881.00185 1.13516e-17
4882.00175 1.13215e-17
4883.00165 1.11179e-17
4884.00155 1.11001e-17
4885.00145 1.11163e-17
4886.00135 1.11528e-17
4887.00125 1.08609e-17
4888.00115 1.06136e-17
4889.00105 1.05011e-17
4890.00095 1.05003e-17
4891.00085 1.02606e-17
4892.00075 1.02048e-17
4893.00065 1.02943e-17
4894.00055 1.02907e-17
4895.00045 1.02928e-17
4896.00035 1.02596e-17
4897.00025 1.02484e-17
4898.00015 1.02553e-17
4899.00005 1.02441e-17
4899.99995 9.82545e-18
4900.99985 9.71403e-18
4901.99975 9.76186e-18
4902.99965 9.08561e-18
4903.99955 9.01787e-18
4904.99945 9.04399e-18
4905.99935 8.93640e-18
4906.99925 9.35558e-18
4907.99915 9.34567e-18
4908.99905 9.18741e-18
4909.99895 8.75141e-18
4910.99885 8.75078e-18
4911.99875 8.70086e-18
4912.99865 8.68361e-18
4913.99855 8.51189e-18
4914.99845 8.43051e-18
4915.99835 8.38777e-18
4916.99825 8.36475e-18
4917.99815 8.22644e-18
4918.99805 8.31035e-18
4919.99795 8.30975e-18
4920.99785 8.34510e-18
4921.99775 8.30856e-18
4922.99765 8.39011e-18
4923.99755 8.34863e-18
4924.99745 8.34803e-18
4925.99735 8.39674e-18
4926.99725 8.35874e-18
4927.99715 8.34623e-18
4928.99705 8.30824e-18
4929.99695 8.48446e-18
4930.99685 8.54115e-18
4931.99675 8.48324e-18
4932.99665 8.53992e-18
4933.99655 8.54238e-18
4934.99645 8.73702e-18
4935.99635 9.13309e-18
4936.99625 9.07774e-18
4937.99615 9.08649e-18
4938.99605 9.19694e-18
4939.99595 9.35582e-18
4940.99585 9.84037e-18
4941.99575 9.85498e-18
4942.99565 9.91972e-18
4943.99555 1.00181e-17
4944.99545 1.03647e-17
4945.99535 1.01670e-17
4946.99525 1.01663e-17
4948.00515 1.06215e-17
4949.00505 1.08020e-17
4950.00495 1.09133e-17
4951.00485 1.11476e-17
4952.00475 1.11705e-17
4953.00465 1.16631e-17
4954.00455 1.24219e-17
4955.00445 1.27943e-17
4956.00435 1.28292e-17
4957.00425 1.29914e-17
4958.00415 1.32042e-17
4959.00405 1.33888e-17
4960.00395 1.35907e-17
4961.00385 1.35997e-17
4962.00375 1.38660e-17
4963.00365 1.38861e-17
4964.00355 1.39706e-17
4965.00345 1.39696e-17
4966.00335 1.41700e-17
4967.00325 1.42761e-17
4968.00315 1.45101e-17
4969.00305 1.47367e-17
4970.00295 1.48774e-17
4971.00285 1.51055e-17
4972.00275 1.54597e-17
4973.00265 1.54625e-17
4974.00255 1.55811e-17
4975.00245 1.56108e-17
4976.00235 1.56950e-17
4977.00225 1.57381e-17
4978.00215 1.65035e-17
4979.00205 1.68081e-17
4980.00195 1.74772e-17
4981.00185 1.77354e-17
4982.00175 1.76064e-17
4983.00165 1.77598e-17
4984.00155 1.80696e-17
4985.00145 1.80510e-17
4986.00135 1.83310e-17
4987.00125 1.86300e-17
4988.00115 1.91691e-17
4989.00105 1.93718e-17
4990.00095 1.93750e-17
4991.00085 1.93690e-17
4992.00075 1.93676e-17
4993.00065 1.94305e-17
4994.00055 1.92968e-17
4995.00045 1.90668e-17
4996.00035 1.87537e-17
4997.00025 1.87524e-17
4998.00015 1.86524e-17
4999.00005 1.85357e-17
4999.99995 1.85344e-17
5000.99985 1.85293e-17
5001.99975 1.80676e-17
5002.99965 1.76036e-17
5003.99955 1.72355e-17
5004.99945 1.71293e-17
5005.99935 1.65910e-17
5006.99925 1.65447e-17
5007.99915 1.65336e-17
5008.99905 1.61030e-17
5009.99895 1.60999e-17
5010.99885 1.59354e-17
5011.99875 1.57439e-17
5012.99865 1.56516e-17
5013.99855 1.57048e-17
5014.99845 1.54921e-17
5015.99835 1.54910e-17
5016.99825 1.54365e-17
5017.99815 1.53885e-17
5018.99805 1.51112e-17
5019.99795 1.49640e-17
5020.99785 1.46226e-17
5021.99775 1.46842e-17
5022.99765 1.47897e-17
5023.99755 1.49598e-17
5024.99745 1.46982e-17
5025.99735 1.46263e-17
5026.99725 1.43105e-17
5027.99715 1.41514e-17
5028.99705 1.41950e-17
5029.99695 1.40117e-17
5030.99685 1.37303e-17
5031.99675 1.36390e-17
5032.99665 1.36524e-17
5033.99655 1.36960e-17
5034.99645 1.37014e-17
5035.99635 1.42039e-17
5036.99625 1.42976e-17
5037.99615 1.42966e-17
5038.99605 1.43692e-17
5039.99595 1.43775e-17
5040.99585 1.42793e-17
5041.99575 1.42783e-17
5042.99565 1.44137e-17
5043.99555 1.43480e-17
5044.99545 1.43128e-17
5045.99535 1.43510e-17
5046.99525 1.43450e-17
5047.99515 1.45538e-17
5048.99505 1.46824e-17
5050.00495 1.47197e-17
5051.00485 1.46131e-17
5052.00475 1.47177e-17
5053.00465 1.46116e-17
5054.00455 1.44357e-17
5055.00445 1.44240e-17
5056.00435 1.42967e-17
5057.00425 1.43302e-17
5058.00415 1.42880e-17
5059.00405 1.42890e-17
5060.00395 1.39286e-17
5061.00385 1.35656e-17
5062.00375 1.32794e-17
5063.00365 1.26376e-17
5064.00355 1.23548e-17
5065.00345 1.19190e-17
5066.00335 1.16996e-17
5067.00325 1.16988e-17
5068.00315 1.15026e-17
5069.00305 1.13142e-17
5070.00295 1.10738e-17
5071.00285 1.09987e-17
5072.00275 1.05947e-17
5073.00265 1.05069e-17
5074.00255 1.02538e-17
5075.00245 9.83155e-18
5076.00235 9.83087e-18
5077.00225 9.73399e-18
5078.00215 9.36497e-18
5079.00205 9.42309e-18
5080.00195 9.33842e-18
5081.00185 9.42179e-18
5082.00175 9.31064e-18
5083.00165 9.09609e-18
5084.00155 9.08898e-18
5085.00145 9.01207e-18
5086.00135 9.03071e-18
5087.00125 9.01083e-18
5088.00115 8.72999e-18
5089.00105 8.88063e-18
5090.00095 8.88484e-18
5091.00085 9.12510e-18
5092.00075 8.87664e-18
5093.00065 9.17058e-18
5094.00055 9.06290e-18
5095.00045 9.16932e-18
5096.00035 9.49764e-18
5097.00025 9.69199e-18
5098.00015 9.89643e-18
5099.00005 9.57295e-18
5099.99995 1.02313e-17
5100.99985 1.06339e-17
5101.99975 1.08816e-17
5102.99965 1.08809e-17
5103.99955 1.11481e-17
5104.99945 1.11474e-17
5105.99935 1.19473e-17
5106.99925 1.20199e-17
5107.99915 1.21544e-17
5108.99905 1.21960e-17
5109.99895 1.24444e-17
5110.99885 1.28123e-17
5111.99875 1.29940e-17
5112.99865 1.32665e-17
5113.99855 1.33401e-17
5114.99845 1.32784e-17
5115.99835 1.33984e-17
5116.99825 1.33629e-17
5117.99815 1.33502e-17
5118.99805 1.34391e-17
5119.99795 1.32739e-17
5120.99785 1.33130e-17
5121.99775 1.33466e-17
5122.99765 1.33660e-17
5123.99755 1.35371e-17
5124.99745 1.35489e-17
5125.99735 1.35352e-17
5126.99725 1.37379e-17
5127.99715 1.37500e-17
5128.99705 1.37480e-17
5129.99695 1.37849e-17
5130.99685 1.36951e-17
5131.99675 1.37897e-17
5132.99665 1.38079e-17
5133.99655 1.38313e-17
5134.99645 1.41000e-17
5135.99635 1.42134e-17
5136.99625 1.41301e-17
5137.99615 1.41557e-17
5138.99605 1.42615e-17
5139.99595 1.45238e-17
5140.99585 1.50579e-17
5141.99575 1.51161e-17
5142.99565 1.50729e-17
5143.99555 1.54401e-17
5144.99545 1.54866e-17
5145.99535 1.54886e-17
5146.99525 1.54870e-17
5148.00515 1.54909e-17
5149.00505 1.57437e-17
5150.00495 1.59433e-17
5151.00485 1.60434e-17
5152.00475 1.61851e-17
5153.00465 1.60171e-17
5154.00455 1.60161e-17
5155.00445 1.62009e-17
5156.00435 1.62048e-17
5157.00425 1.60630e-17
5158.00415 1.61307e-17
5159.00405 1.61196e-17
5160.00395 1.61238e-17
5161.00385 1.61326e-17
5162.00375 1.59067e-17
5163.00365 1.56899e-17
5164.00355 1.55624e-17
5165.00345 1.55124e-17
5166.00335 1.53585e-17
5167.00325 1.51976e-17
5168.00315 1.52640e-17
5169.00305 1.52630e-17
5170.00295 1.51809e-17
5171.00285 1.50063e-17
5172.00275 1.49368e-17
5173.00265 1.49907e-17
5174.00255 1.51484e-17
5175.00245 1.49072e-17
5176.00235 1.49024e-17
5177.00225 1.50801e-17
5178.00215 1.50908e-17
5179.00205 1.51578e-17
5180.00195 1.51568e-17
5181.00185 1.50343e-17
5182.00175 1.50860e-17
5183.00165 1.50323e-17
5184.00155 1.44896e-17
5185.00145 1.44922e-17
5186.00135 1.44876e-17
5187.00125 1.45351e-17
5188.00115 1.47519e-17
5189.00105 1.47856e-17
5190.00095 1.47846e-17
5191.00085 1.47836e-17
5192.00075 1.47109e-17
5193.00065 1.46263e-17
5194.00055 1.45284e-17
5195.00045 1.45463e-17
5196.00035 1.44977e-17
5197.00025 1.45927e-17
5198.00015 1.46714e-17
5199.00005 1.44991e-17
5199.99995 1.46695e-17
5200.99985 1.44929e-17
5201.99975 1.45001e-17
5202.99965 1.44803e-17
5203.99955 1.44557e-17
5204.99945 1.44547e-17
5205.99935 1.44273e-17
5206.99925 1.40500e-17
5207.99915 1.38652e-17
5208.99905 1.38643e-17
5209.99895 1.37893e-17
5210.99885 1.37884e-17
5211.99875 1.39829e-17
5212.99865 1.40066e-17
5213.99855 1.43608e-17
5214.99845 1.43598e-17
5215.99835 1.43589e-17
5216.99825 1.41339e-17
5217.99815 1.42758e-17
5218.99805 1.41194e-17
5219.99795 1.41185e-17
5220.99785 1.42604e-17
5221.99775 1.43213e-17
5222.99765 1.46659e-17
5223.99755 1.47924e-17
5224.99745 1.48687e-17
5225.99735 1.48772e-17
5226.99725 1.46440e-17
5227.99715 1.45811e-17
5228.99705 1.44934e-17
5229.99695 1.43806e-17
5230.99685 1.43797e-17
5231.99675 1.46307e-17
5232.99665 1.48260e-17
5233.99655 1.48445e-17
5234.99645 1.48904e-17
5235.99635 1.48050e-17
5236.99625 1.43503e-17
5237.99615 1.43299e-17
5238.99605 1.42172e-17
5239.99595 1.42118e-17
5240.99585 1.40983e-17
5241.99575 1.44521e-17
5242.99565 1.45895e-17
5243.99555 1.45886e-17
5244.99545 1.48695e-17
5245.99535 1.49910e-17
5246.99525 1.50330e-17
5247.99515 1.52156e-17
5248.99505 1.49552e-17
5249.99495 1.50477e-17
5251.00485 1.58522e-17
5252.00475 1.57778e-17
5253.00465 1.55931e-17
5254.00455 1.57252e-17
5255.00445 1.58472e-17
5256.00435 1.59444e-17
5257.00425 1.59595e-17
5258.00415 1.59585e-17
5259.00405 1.61141e-17
5260.00395 1.62967e-17
5261.00385 1.62956e-17
5262.00375 1.60033e-17
5263.00365 1.59862e-17
5264.00355 1.59733e-17
5265.00345 1.58661e-17
5266.00335 1.56669e-17
5267.00325 1.56498e-17
5268.00315 1.56369e-17
5269.00305 1.58502e-17
5270.00295 1.57889e-17
5271.00285 1.50628e-17
5272.00275 1.51210e-17
5273.00265 1.54579e-17
5274.00255 1.51191e-17
5275.00245 1.47811e-17
5276.00235 1.47802e-17
5277.00225 1.47792e-17
5278.00215 1.52980e-17
5279.00205 1.58015e-17
5280.00195 1.58607e-17
5281.00185 1.59464e-17
5282.00175 1.57985e-17
5283.00165 1.56110e-17
5284.00155 1.56281e-17
5285.00145 1.56271e-17
5286.00135 1.59594e-17
5287.00125 1.61812e-17
5288.00115 1.62408e-17
5289.00105 1.68008e-17
5290.00095 1.69403e-17
5291.00085 1.72304e-17
5292.00075 1.71398e-17
5293.00065 1.72838e-17
5294.00055 1.73000e-17
5295.00045 1.76769e-17
5296.00035 1.77883e-17
5297.00025 1.77872e-17
5298.00015 1.81421e-17
5299.00005 1.81866e-17
5299.99995 1.81855e-17
5300.99985 1.81176e-17
5301.99975 1.81165e-17
5302.99965 1.81153e-17
5303.99955 1.79472e-17
5304.99945 1.77992e-17
5305.99935 1.77981e-17
5306.99925 1.76083e-17
5307.99915 1.76770e-17
5308.99905 1.77366e-17
5309.99895 1.76385e-17
5310.99885 1.71569e-17
5311.99875 1.72770e-17
5312.99865 1.72760e-17
5313.99855 1.68013e-17
5314.99845 1.68124e-17
5315.99835 1.66781e-17
5316.99825 1.66771e-17
5317.99815 1.68699e-17
5318.99805 1.69036e-17
5319.99795 1.68441e-17
5320.99785 1.68668e-17
5321.99775 1.71156e-17
5322.99765 1.71311e-17
5323.99755 1.71456e-17
5324.99745 1.74277e-17
5325.99735 1.74266e-17
5326.99725 1.74083e-17
5327.99715 1.75209e-17
5328.99705 1.75597e-17
5329.99695 1.73385e-17
5330.99685 1.70767e-17
5331.99675 1.69221e-17
5332.99665 1.68938e-17
5333.99655 1.69201e-17
5334.99645 1.70463e-17
5335.99635 1.69377e-17
5336.99625 1.70639e-17
5337.99615 1.70890e-17
5338.99605 1.75680e-17
5339.99595 1.70257e-17
5340.99585 1.71050e-17
5341.99575 1.70976e-17
5342.99565 1.71586e-17
5343.99555 1.71576e-17
5344.99545 1.71303e-17
5345.99535 1.70545e-17
5346.99525 1.70534e-17
5348.00515 1.71557e-17
5349.00505 1.73420e-17
5350.00495 1.73473e-17
5351.00485 1.73931e-17
5352.00475 1.77243e-17
5353.00465 1.77959e-17
5354.00455 1.75687e-17
5355.00445 1.72924e-17
5356.00435 1.69592e-17
5357.00425 1.69194e-17
5358.00415 1.69184e-17
5359.00405 1.71167e-17
5360.00395 1.70487e-17
5361.00385 1.65808e-17
5362.00375 1.68975e-17
5363.00365 1.68965e-17
5364.00355 1.68360e-17
5365.00345 1.65110e-17
5366.00335 1.64775e-17
5367.00325 1.64515e-17
5368.00315 1.63145e-17
5369.00305 1.58653e-17
5370.00295 1.58643e-17
5371.00285 1.58634e-17
5372.00275 1.61098e-17
5373.00265 1.61088e-17
5374.00255 1.61560e-17
5375.00245 1.64059e-17
5376.00235 1.64812e-17
5377.00225 1.68196e-17
5378.00215 1.68186e-17
5379.00205 1.71043e-17
5380.00195 1.71167e-17
5381.00185 1.69886e-17
5382.00175 1.69876e-17
5383.00165 1.73036e-17
5384.00155 1.70760e-17
5385.00145 1.70749e-17
5386.00135 1.69835e-17
5387.00125 1.70595e-17
5388.00115 1.70584e-17
5389.00105 1.72607e-17
5390.00095 1.71693e-17
5391.00085 1.76515e-17
5392.00075 1.78105e-17
5393.00065 1.79687e-17
5394.00055 1.79690e-17
5395.00045 1.79679e-17
5396.00035 1.77459e-17
5397.00025 1.74163e-17
5398.00015 1.77438e-17
5399.00005 1.79623e-17
5399.99995 1.84402e-17
5400.99985 1.83870e-17
5401.99975 1.86190e-17
5402.99965 1.86960e-17
5403.99955 1.88166e-17
5404.99945 1.89128e-17
5405.99935 1.89671e-17
5406.99925 1.91718e-17
5407.99915 1.91750e-17
5408.99905 1.93217e-17
5409.99895 1.89875e-17
5410.99885 1.87826e-17
5411.99875 1.87815e-17
5412.99865 1.91694e-17
5413.99855 1.91682e-17
5414.99845 1.91135e-17
5415.99835 1.91124e-17
5416.99825 1.89661e-17
5417.99815 1.89649e-17
5418.99805 1.89520e-17
5419.99795 1.87525e-17
5420.99785 1.82616e-17
5421.99775 1.82107e-17
5422.99765 1.81047e-17
5423.99755 1.80110e-17
5424.99745 1.80100e-17
5425.99735 1.78497e-17
5426.99725 1.78389e-17
5427.99715 1.77634e-17
5428.99705 1.77071e-17
5429.99695 1.76644e-17
5430.99685 1.77097e-17
5431.99675 1.76096e-17
5432.99665 1.74024e-17
5433.99655 1.69609e-17
5434.99645 1.70550e-17
5435.99635 1.71027e-17
5436.99625 1.71129e-17
5437.99615 1.70246e-17
5438.99605 1.70575e-17
5439.99595 1.70565e-17
5440.99585 1.69433e-17
5441.99575 1.69167e-17
5442.99565 1.64666e-17
5443.99555 1.63446e-17
5444.99545 1.63240e-17
5445.99535 1.61858e-17
5446.99525 1.59765e-17
5447.99515 1.59502e-17
5448.99505 1.61315e-17
5449.99495 1.62582e-17
5451.00485 1.66023e-17
5452.00475 1.66141e-17
5453.00464 1.66590e-17
5454.00455 1.66581e-17
5455.00445 1.66571e-17
5456.00435 1.62351e-17
5457.00425 1.69598e-17
5458.00414 1.75767e-17
5459.00405 1.83459e-17
5460.00395 2.02837e-17
5461.00385 2.03513e-17
5462.00374 2.03526e-17
5463.00365 2.03927e-17
5464.00355 2.04815e-17
5465.00345 2.05543e-17
5466.00335 2.05595e-17
5467.00324 2.05584e-17
5468.00315 1.97192e-17
5469.00305 1.92427e-17
5470.00295 1.87898e-17
5471.00284 1.88903e-17
5472.00275 1.88152e-17
5473.00265 1.88006e-17
5474.00255 1.87151e-17
5475.00245 1.87141e-17
5476.00234 1.87974e-17
5477.00225 1.87964e-17
5478.00215 1.87953e-17
5479.00205 1.86864e-17
5480.00194 1.88080e-17
5481.00185 1.87921e-17
5482.00175 1.87911e-17
5483.00165 1.87603e-17
5484.00155 1.87593e-17
5485.00144 1.87831e-17
5486.00135 1.87572e-17
5487.00125 1.87958e-17
5488.00115 1.88263e-17
5489.00104 1.90573e-17
5490.00095 1.88974e-17
5491.00085 1.88151e-17
5492.00075 1.88141e-17
5493.00065 1.87988e-17
5494.00054 1.88120e-17
5495.00045 1.87839e-17
5496.00035 1.87957e-17
5497.00025 1.87935e-17
5498.00014 1.88748e-17
5499.00005 1.90676e-17
5499.99995 1.90665e-17
5500.99985 1.93103e-17
5501.99975 1.93093e-17
5502.99964 1.93628e-17
5503.99955 1.97748e-17
5504.99945 1.98332e-17
5505.99935 1.99340e-17
5506.99924 2.04892e-17
5507.99915 2.05681e-17
5508.99905 2.05895e-17
5509.99895 2.06347e-17
5510.99885 2.07039e-17
5511.99874 2.06325e-17
5512.99865 2.07016e-17
5513.99855 2.07005e-17
5514.99845 2.06993e-17
5515.99834 2.07186e-17
5516.99825 2.09524e-17
5517.99815 2.13496e-17
5518.99805 2.19550e-17
5519.99795 2.20937e-17
5520.99784 2.23970e-17
5521.99775 2.23747e-17
5522.99765 2.23852e-17
5523.99755 2.23587e-17
5524.99744 2.23116e-17
5525.99735 2.19620e-17
5526.99725 2.20889e-17
5527.99715 2.16714e-17
5528.99705 2.16138e-17
5529.99694 2.16276e-17
5530.99685 2.16509e-17
5531.99675 2.21489e-17
5532.99665 2.22599e-17
5533.99654 2.23114e-17
5534.99645 2.22853e-17
5535.99635 2.22824e-17
5536.99625 2.22812e-17
5537.99615 2.21934e-17
5538.99604 2.19023e-17
5539.99595 2.18621e-17
5540.99585 2.18116e-17
5541.99575 2.18644e-17
5542.99564 2.20037e-17
5543.99555 2.20025e-17
5544.99545 2.20013e-17
5545.99535 2.20071e-17
5546.99525 2.20447e-17
5548.00514 2.20036e-17
5549.00504 2.19547e-17
5550.00494 2.18130e-17
5551.00484 2.17604e-17
5552.00474 2.17592e-17
5553.00464 2.16214e-17
5554.00454 2.15317e-17
5555.00444 2.15031e-17
5556.00434 2.09130e-17
5557.00424 2.01143e-17
5558.00414 1.96326e-17
5559.00404 1.89510e-17
5560.00394 1.85550e-17
5561.00384 1.85366e-17
5562.00374 1.84813e-17
5563.00364 1.84803e-17
5564.00354 1.83745e-17
5565.00344 1.83879e-17
5566.00334 1.83870e-17
5567.00324 1.83860e-17
5568.00314 1.83787e-17
5569.00304 1.83778e-17
5570.00294 1.83831e-17
5571.00284 1.86569e-17
5572.00274 1.92112e-17
5573.00264 1.98716e-17
5574.00254 2.06653e-17
5575.00244 2.11963e-17
5576.00234 2.11951e-17
5577.00224 2.11724e-17
5578.00214 2.11447e-17
5579.00204 2.11436e-17
5580.00194 2.11425e-17
5581.00184 2.11237e-17
5582.00174 2.07893e-17
5583.00164 2.00422e-17
5584.00154 1.80185e-17
5585.00144 1.65058e-17
5586.00134 1.65049e-17
5587.00124 1.63516e-17
5588.00114 1.62920e-17
5589.00104 1.60454e-17
5590.00094 1.58118e-17
5591.00084 1.56987e-17
5592.00074 1.54118e-17
5593.00064 1.53378e-17
5594.00054 1.49500e-17
5595.00044 1.47854e-17
5596.00034 1.44304e-17
5597.00024 1.43692e-17
5598.00014 1.41326e-17
5599.00004 1.39634e-17
5599.99994 1.39552e-17
5600.99984 1.37662e-17
5601.99974 1.37655e-17
5602.99964 1.38788e-17
5603.99954 1.40226e-17
5604.99944 1.40219e-17
5605.99934 1.40971e-17
5606.99924 1.42440e-17
5607.99914 1.41620e-17
5608.99904 1.41135e-17
5609.99894 1.40902e-17
5610.99884 1.37561e-17
5611.99874 1.34743e-17
5612.99864 1.35997e-17
5613.99854 1.39335e-17
5614.99844 1.41957e-17
5615.99834 1.47231e-17
5616.99824 1.48668e-17
5617.99814 1.47277e-17
5618.99804 1.44614e-17
5619.99794 1.41744e-17
5620.99784 1.40914e-17
5621.99774 1.37697e-17
5622.99764 1.37034e-17
5623.99754 1.37027e-17
5624.99744 1.37020e-17
5625.99734 1.40238e-17
5626.99724 1.40231e-17
5627.99714 1.40844e-17
5628.99704 1.40837e-17
5629.99694 1.40483e-17
5630.99684 1.39743e-17
5631.99674 1.39736e-17
5632.99664 1.39729e-17
5633.99654 1.39834e-17
5634.99644 1.40174e-17
5635.99634 1.40167e-17
5636.99624 1.40048e-17
5637.99614 1.40041e-17
5638.99604 1.38845e-17
5639.99594 1.35167e-17
5640.99584 1.35008e-17
5641.99574 1.34374e-17
5642.99564 1.32979e-17
5643.99554 1.32973e-17
5644.99544 1.33123e-17
5645.99534 1.33183e-17
5646.99524 1.32090e-17
5647.99514 1.32084e-17
5648.99504 1.30763e-17
5649.99494 1.28909e-17
5651.00484 1.27230e-17
5652.00474 1.26516e-17
5653.00464 1.26345e-17
5654.00454 1.26123e-17
5655.00444 1.23469e-17
5656.00434 1.23180e-17
5657.00424 1.23320e-17
5658.00414 1.22385e-17
5659.00404 1.21903e-17
5660.00394 1.20831e-17
5661.00384 1.20619e-17
5662.00374 1.21519e-17
5663.00364 1.20905e-17
5664.00354 1.20313e-17
5665.00344 1.17986e-17
5666.00334 1.17239e-17
5667.00324 1.14360e-17
5668.00314 1.14354e-17
5669.00304 1.13173e-17
5670.00294 1.12920e-17
5671.00284 1.08523e-17
5672.00274 1.08481e-17
5673.00264 1.07186e-17
5674.00254 1.07181e-17
5675.00244 1.06853e-17
5676.00234 1.06320e-17
5677.00224 1.05377e-17
5678.00214 1.05015e-17
5679.00204 1.04199e-17
5680.00194 1.03739e-17
5681.00184 1.03486e-17
5682.00174 1.02376e-17
5683.00164 1.01765e-17
5684.00154 1.01104e-17
5685.00144 1.00710e-17
5686.00134 9.73267e-18
5687.00124 9.69521e-18
5688.00114 9.56099e-18
5689.00104 8.98669e-18
5690.00094 8.98017e-18
5691.00084 8.86621e-18
5692.00074 8.40545e-18
5693.00064 8.30395e-18
5694.00054 7.99365e-18
5695.00044 7.97919e-18
5696.00034 7.79719e-18
5697.00024 7.38364e-18
5698.00014 7.07137e-18
5699.00004 6.66989e-18
5699.99994 6.64991e-18
5700.99984 6.56143e-18
5701.99974 6.49247e-18
5702.99964 6.29492e-18
5703.99954 6.04220e-18
5704.99944 6.01987e-18
5705.99934 5.84378e-18
5706.99924 5.82154e-18
5707.99914 5.52052e-18
5708.99904 5.06758e-18
5709.99894 4.88451e-18
5710.99884 4.86362e-18
5711.99874 4.81186e-18
5712.99864 4.53808e-18
5713.99854 4.42663e-18
5714.99844 4.41782e-18
5715.99834 4.36526e-18
5716.99824 4.21650e-18
5717.99814 4.06397e-18
5718.99804 4.00232e-18
5719.99794 3.73980e-18
5720.99784 3.44892e-18
5721.99774 3.28214e-18
5722.99764 3.14875e-18
5723.99754 2.91618e-18
5724.99744 2.91604e-18
5725.99734 2.90790e-18
5726.99724 2.86858e-18
5727.99714 2.85492e-18
5728.99704 2.81711e-18
5729.99694 2.78675e-18
5730.99684 2.59462e-18
5731.99674 2.68265e-18
5732.99664 2.64540e-18
5733.99654 2.63277e-18
5734.99644 2.54863e-18
5735.99634 2.53310e-18
5736.99624 2.56890e-18
5737.99614 2.55664e-18
5738.99604 2.53274e-18
5739.99594 2.51771e-18
5740.99584 2.48009e-18
5741.99574 2.55245e-18
5742.99564 2.62038e-18
5743.99554 2.62500e-18
5744.99544 2.58263e-18
5745.99534 2.62475e-18
5746.99524 2.67925e-18
5748.00514 2.71709e-18
5749.00504 2.71696e-18
5750.00494 2.76556e-18
5751.00484 2.84808e-18
5752.00474 2.98609e-18
5753.00464 3.03909e-18
5754.00454 3.20357e-18
5755.00444 3.33693e-18
5756.00434 3.32180e-18
5757.00424 3.44148e-18
5758.00414 3.44132e-18
5759.00404 3.46537e-18
5760.00394 3.52256e-18
5761.00384 3.59566e-18
5762.00374 3.87287e-18
5763.00364 3.91253e-18
5764.00354 3.97659e-18
5765.00344 4.12015e-18
5766.00334 4.23148e-18
5767.00324 4.36208e-18
5768.00314 4.33660e-18
5769.00304 4.33776e-18
5770.00294 4.38004e-18
5771.00284 4.37984e-18
5772.00274 5.00358e-18
5773.00264 5.10848e-18
5774.00254 5.28389e-18
5775.00244 5.46259e-18
5776.00234 5.55397e-18
5777.00224 5.72673e-18
5778.00214 5.91683e-18
5779.00204 6.13603e-18
5780.00194 6.16208e-18
5781.00184 6.13762e-18
5782.00174 6.17752e-18
5783.00164 6.24957e-18
5784.00154 6.33953e-18
5785.00144 6.93916e-18
5786.00134 7.33200e-18
5787.00124 7.42066e-18
5788.00114 7.76429e-18
5789.00104 8.15540e-18
5790.00094 8.58717e-18
5791.00084 8.62137e-18
5792.00074 8.86622e-18
5793.00064 8.94775e-18
5794.00054 9.34313e-18
5795.00044 9.50848e-18
5796.00034 9.70938e-18
5797.00024 9.93241e-18
5798.00014 1.00561e-17
5799.00004 1.00653e-17
5799.99994 1.02892e-17
5800.99984 1.03956e-17
5801.99974 1.05284e-17
5802.99964 1.07534e-17
5803.99954 1.08004e-17
5804.99944 1.14771e-17
5805.99934 1.19779e-17
5806.99924 1.20002e-17
5807.99914 1.20480e-17
5808.99904 1.21940e-17
5809.99894 1.22727e-17
5810.99884 1.23206e-17
5811.99874 1.26748e-17
5812.99864 1.29569e-17
5813.99854 1.30214e-17
5814.99844 1.30464e-17
5815.99834 1.30859e-17
5816.99824 1.32410e-17
5817.99814 1.33059e-17
5818.99804 1.33456e-17
5819.99794 1.38962e-17
5820.99784 1.46609e-17
5821.99774 1.52187e-17
5822.99764 1.53889e-17
5823.99754 1.55591e-17
5824.99744 1.56111e-17
5825.99734 1.57637e-17
5826.99724 1.59013e-17
5827.99714 1.61002e-17
5828.99704 1.62981e-17
5829.99694 1.66567e-17
5830.99684 1.69499e-17
5831.99674 1.71386e-17
5832.99664 1.69772e-17
5833.99654 1.69883e-17
5834.99644 1.71491e-17
5835.99634 1.71484e-17
5836.99624 1.70450e-17
5837.99614 1.74474e-17
5838.99604 1.77976e-17
5839.99594 1.81467e-17
5840.99584 1.84432e-17
5841.99574 1.88489e-17
5842.99564 1.88490e-17
5843.99554 1.86745e-17
5844.99544 1.89048e-17
5845.99534 1.89819e-17
5846.99524 1.89810e-17
5847.99514 1.92995e-17
5848.99504 1.94144e-17
5849.99494 1.95618e-17
5851.00484 1.96245e-17
5852.00474 2.01206e-17
5853.00464 2.01309e-17
5854.00454 2.01906e-17
5855.00444 2.03384e-17
5856.00434 2.04604e-17
5857.00424 2.05560e-17
5858.00414 2.15571e-17
5859.00404 2.16725e-17
5860.00394 2.17191e-17
5861.00384 2.17556e-17
5862.00374 2.17547e-17
5863.00364 2.18208e-17
5864.00354 2.20686e-17
5865.00344 2.20258e-17
5866.00334 2.19830e-17
5867.00324 2.19755e-17
5868.00314 2.22193e-17
5869.00304 2.24713e-17
5870.00294 2.24864e-17
5871.00284 2.25231e-17
5872.00274 2.25018e-17
5873.00264 2.27659e-17
5874.00254 2.31972e-17
5875.00244 2.31962e-17
5876.00234 2.31545e-17
5877.00224 2.33507e-17
5878.00214 2.33497e-17
5879.00204 2.31515e-17
5880.00194 2.33315e-17
5881.00184 2.27400e-17
5882.00174 2.25061e-17
5883.00164 2.25051e-17
5884.00154 2.21664e-17
5885.00144 2.13437e-17
5886.00134 1.92336e-17
5887.00124 1.91548e-17
5888.00114 1.90948e-17
5889.00104 1.81129e-17
5890.00094 1.78134e-17
5891.00084 1.77959e-17
5892.00074 1.77951e-17
5893.00064 1.77944e-17
5894.00054 1.76934e-17
5895.00044 1.77707e-17
5896.00034 1.77699e-17
5897.00024 1.78081e-17
5898.00014 1.80464e-17
5899.00004 1.80587e-17
5899.99994 1.80579e-17
5900.99984 1.81656e-17
5901.99974 1.81772e-17
5902.99964 1.82415e-17
5903.99954 1.85663e-17
5904.99944 1.86402e-17
5905.99934 1.85878e-17
5906.99924 1.86294e-17
5907.99914 1.92442e-17
5908.99904 1.94153e-17
5909.99894 1.99194e-17
5910.99884 1.98560e-17
5911.99874 1.98718e-17
5912.99864 1.99008e-17
5913.99854 1.99101e-17
5914.99844 2.01408e-17
5915.99834 2.01479e-17
5916.99824 2.02934e-17
5917.99814 2.00579e-17
5918.99804 2.00999e-17
5919.99794 2.00991e-17
5920.99784 1.98215e-17
5921.99774 1.97665e-17
5922.99764 1.96558e-17
5923.99754 1.96979e-17
5924.99744 1.98550e-17
5925.99734 1.98473e-17
5926.99724 1.97185e-17
5927.99714 1.96877e-17
5928.99704 1.94580e-17
5929.99694 1.95386e-17
5930.99684 1.92870e-17
5931.99674 1.90474e-17
5932.99664 1.90219e-17
5933.99654 1.91291e-17
5934.99644 1.88844e-17
5935.99634 1.88134e-17
5936.99624 1.86158e-17
5937.99614 1.88119e-17
5938.99604 1.90323e-17
5939.99594 1.89268e-17
5940.99584 1.88343e-17
5941.99574 1.84708e-17
5942.99564 1.85073e-17
5943.99554 1.88695e-17
5944.99544 1.88189e-17
5945.99534 1.87809e-17
5946.99524 1.83926e-17
5947.99514 1.83341e-17
5949.00504 1.83333e-17
5950.00494 1.81764e-17
5951.00484 1.81741e-17
5952.00474 1.79744e-17
5953.00464 1.79896e-17
5954.00454 1.79197e-17
5955.00444 1.77824e-17
5956.00434 1.77176e-17
5957.00424 1.75554e-17
5958.00414 1.75304e-17
5959.00404 1.75297e-17
5960.00394 1.71884e-17
5961.00384 1.71673e-17
5962.00374 1.71103e-17
5963.00364 1.68497e-17
5964.00354 1.69680e-17
5965.00344 1.68625e-17
5966.00334 1.66295e-17
5967.00324 1.64094e-17
5968.00314 1.64088e-17
5969.00304 1.63293e-17
5970.00294 1.65765e-17
5971.00284 1.65864e-17
5972.00274 1.63123e-17
5973.00264 1.61290e-17
5974.00254 1.60582e-17
5975.00244 1.60362e-17
5976.00234 1.58715e-17
5977.00224 1.58709e-17
5978.00214 1.60319e-17
5979.00204 1.59481e-17
5980.00194 1.57773e-17
5981.00184 1.58157e-17
5982.00174 1.57541e-17
5983.00164 1.56563e-17
5984.00154 1.56242e-17
5985.00144 1.56306e-17
5986.00134 1.56011e-17
5987.00124 1.54156e-17
5988.00114 1.53522e-17
5989.00104 1.52845e-17
5990.00094 1.52213e-17
5991.00084 1.52598e-17
5992.00074 1.48857e-17
5993.00064 1.46547e-17
5994.00054 1.43736e-17
5995.00044 1.43122e-17
5996.00034 1.41955e-17
5997.00024 1.40208e-17
5998.00014 1.39168e-17
5999.00004 1.38770e-17
5999.99994 1.38765e-17
6000.99984 1.38356e-17
6001.99974 1.39146e-17
6002.99964 1.39140e-17
6003.99954 1.39135e-17
6004.99944 1.37942e-17
6005.99934 1.37589e-17
6006.99924 1.37105e-17
6007.99914 1.35989e-17
6008.99904 1.35827e-17
6009.99894 1.35822e-17
6010.99884 1.36212e-17
6011.99874 1.34253e-17
6012.99864 1.35288e-17
6013.99854 1.35282e-17
6014.99844 1.35277e-17
6015.99834 1.35272e-17
6016.99824 1.31058e-17
6017.99814 1.28187e-17
6018.99804 1.28182e-17
6019.99794 1.28177e-17
6020.99784 1.30606e-17
6021.99774 1.29111e-17
6022.99764 1.29106e-17
6023.99754 1.29101e-17
6024.99744 1.29096e-17
6025.99734 1.28969e-17
6026.99724 1.28838e-17
6027.99714 1.26399e-17
6028.99704 1.25782e-17
6029.99694 1.25777e-17
6030.99684 1.28739e-17
6031.99674 1.30074e-17
6032.99664 1.30256e-17
6033.99654 1.29315e-17
6034.99644 1.29310e-17
6035.99634 1.28887e-17
6036.99624 1.28428e-17
6037.99614 1.27349e-17
6038.99604 1.26085e-17
6039.99594 1.24755e-17
6040.99584 1.24751e-17
6041.99574 1.24746e-17
6042.99564 1.24476e-17
6043.99554 1.24450e-17
6044.99544 1.24468e-17
6045.99534 1.25172e-17
6046.99524 1.25167e-17
6047.99514 1.25081e-17
6048.99504 1.24811e-17
6049.99494 1.24314e-17
6051.00484 1.23467e-17
6052.00474 1.22789e-17
6053.00464 1.21642e-17
6054.00454 1.21487e-17
6055.00444 1.21096e-17
6056.00434 1.20190e-17
6057.00424 1.22602e-17
6058.00414 1.23276e-17
6059.00404 1.23271e-17
6060.00394 1.23103e-17
6061.00384 1.22967e-17
6062.00374 1.22269e-17
6063.00364 1.22264e-17
6064.00354 1.22260e-17
6065.00344 1.19661e-17
6066.00334 1.21951e-17
6067.00324 1.21947e-17
6068.00314 1.22241e-17
6069.00304 1.22237e-17
6070.00294 1.22399e-17
6071.00284 1.21529e-17
6072.00274 1.21525e-17
6073.00264 1.21348e-17
6074.00254 1.20196e-17
6075.00244 1.14746e-17
6076.00234 1.12704e-17
6077.00224 1.12700e-17
6078.00214 1.12807e-17
6079.00204 1.12567e-17
6080.00194 1.12370e-17
6081.00184 1.12333e-17
6082.00174 1.11912e-17
6083.00164 1.11908e-17
6084.00154 1.11927e-17
6085.00144 1.11828e-17
6086.00134 1.11709e-17
6087.00124 1.11656e-17
6088.00114 1.11341e-17
6089.00104 1.11573e-17
6090.00094 1.11866e-17
6091.00084 1.12162e-17
6092.00074 1.14667e-17
6093.00064 1.15016e-17
6094.00054 1.16060e-17
6095.00044 1.17068e-17
6096.00034 1.17064e-17
6097.00024 1.17492e-17
6098.00014 1.17773e-17
6099.00004 1.17646e-17
6099.99994 1.18424e-17
6100.99984 1.17687e-17
6101.99974 1.18284e-17
6102.99964 1.17808e-17
6103.99954 1.16400e-17
6104.99944 1.15061e-17
6105.99934 1.14915e-17
6106.99924 1.14943e-17
6107.99914 1.14907e-17
6108.99904 1.14934e-17
6109.99894 1.14930e-17
6110.99884 1.14777e-17
6111.99874 1.14772e-17
6112.99864 1.13868e-17
6113.99854 1.13642e-17
6114.99844 1.14050e-17
6115.99834 1.13821e-17
6116.99824 1.13934e-17
6117.99814 1.13930e-17
6118.99804 1.14828e-17
6119.99794 1.17495e-17
6120.99784 1.18120e-17
6121.99774 1.19486e-17
6122.99764 1.21846e-17
6123.99754 1.22263e-17
6124.99744 1.23372e-17
6125.99734 1.23368e-17
6126.99724 1.26322e-17
6127.99714 1.27389e-17
6128.99704 1.26313e-17
6129.99694 1.26020e-17
6130.99684 1.25442e-17
6131.99674 1.24470e-17
6132.99664 1.23359e-17
6133.99654 1.23438e-17
6134.99644 1.23161e-17
6135.99634 1.23391e-17
6136.99624 1.24414e-17
6137.99614 1.24410e-17
6138.99604 1.22402e-17
6139.99594 1.22592e-17
6140.99584 1.21919e-17
6141.99574 1.21363e-17
6142.99564 1.21598e-17
6143.99554 1.21042e-17
6144.99544 1.21038e-17
6145.99534 1.21165e-17
6146.99524 1.21161e-17
6147.99514 1.21157e-17
6149.00504 1.21360e-17
6150.00494 1.20911e-17
6151.00484 1.20196e-17
6152.00474 1.20121e-17
6153.00464 1.19085e-17
6154.00454 1.16359e-17
6155.00444 1.16284e-17
6156.00434 1.15500e-17
6157.00424 1.14680e-17
6158.00414 1.14588e-17
6159.00404 1.14538e-17
6160.00394 1.13968e-17
6161.00384 1.11587e-17
6162.00374 1.09883e-17
6163.00364 1.09879e-17
6164.00354 1.09875e-17
6165.00344 1.10380e-17
6166.00334 1.10376e-17
6167.00324 1.10372e-17
6168.00314 1.11385e-17
6169.00304 1.13492e-17
6170.00294 1.13701e-17
6171.00284 1.14928e-17
6172.00274 1.13635e-17
6173.00264 1.15908e-17
6174.00254 1.15961e-17
6175.00244 1.16058e-17
6176.00234 1.17087e-17
6177.00224 1.17310e-17
6178.00214 1.18797e-17
6179.00204 1.19135e-17
6180.00194 1.19948e-17
6181.00184 1.20505e-17
6182.00174 1.19940e-17
6183.00164 1.18869e-17
6184.00154 1.18580e-17
6185.00144 1.17843e-17
6186.00134 1.15632e-17
6187.00124 1.14603e-17
6188.00114 1.14290e-17
6189.00104 1.14286e-17
6190.00094 1.12216e-17
6191.00084 1.12208e-17
6192.00074 1.14085e-17
6193.00064 1.13446e-17
6194.00054 1.13442e-17
6195.00044 1.14237e-17
6196.00034 1.14233e-17
6197.00024 1.14806e-17
6198.00014 1.16085e-17
6199.00004 1.18267e-17
6199.99994 1.18335e-17
6200.99984 1.18553e-17
6201.99974 1.21071e-17
6202.99964 1.21544e-17
6203.99954 1.21540e-17
6204.99944 1.23605e-17
6205.99934 1.25540e-17
6206.99924 1.28059e-17
6207.99914 1.31172e-17
6208.99904 1.31358e-17
6209.99894 1.32245e-17
6210.99884 1.36089e-17
6211.99874 1.36085e-17
6212.99864 1.37570e-17
6213.99854 1.37565e-17
6214.99844 1.33315e-17
6215.99834 1.32515e-17
6216.99824 1.33306e-17
6217.99814 1.33521e-17
6218.99804 1.33316e-17
6219.99794 1.33439e-17
6220.99784 1.32817e-17
6221.99774 1.31115e-17
6222.99764 1.31438e-17
6223.99754 1.31363e-17
6224.99744 1.31374e-17
6225.99734 1.31699e-17
6226.99724 1.30454e-17
6227.99714 1.30449e-17
6228.99704 1.31001e-17
6229.99694 1.30409e-17
6230.99684 1.30365e-17
6231.99674 1.29352e-17
6232.99664 1.28983e-17
6233.99654 1.28926e-17
6234.99644 1.28610e-17
6235.99634 1.28462e-17
6236.99624 1.28454e-17
6237.99614 1.28422e-17
6238.99604 1.28899e-17
6239.99594 1.33846e-17
6240.99584 1.34779e-17
6241.99574 1.34922e-17
6242.99564 1.34769e-17
6243.99554 1.34588e-17
6244.99544 1.33971e-17
6245.99534 1.35010e-17
6246.99524 1.38791e-17
6247.99514 1.38954e-17
6248.99504 1.39997e-17
6249.99494 1.38997e-17
6251.00484 1.40881e-17
6252.00474 1.41587e-17
6253.00464 1.41630e-17
6254.00454 1.41771e-17
6255.00444 1.42172e-17
6256.00434 1.43237e-17
6257.00424 1.45783e-17
6258.00414 1.45773e-17
6259.00404 1.45768e-17
6260.00394 1.43069e-17
6261.00384 1.43218e-17
6262.00374 1.43399e-17
6263.00364 1.42442e-17
6264.00354 1.39977e-17
6265.00344 1.39788e-17
6266.00334 1.39547e-17
6267.00324 1.38797e-17
6268.00314 1.38160e-17
6269.00304 1.38104e-17
6270.00294 1.36299e-17
6271.00284 1.36626e-17
6272.00274 1.37085e-17
6273.00264 1.36617e-17
6274.00254 1.36280e-17
6275.00244 1.35448e-17
6276.00234 1.35440e-17
6277.00224 1.35183e-17
6278.00214 1.34701e-17
6279.00204 1.33757e-17
6280.00194 1.28657e-17
6281.00184 1.28493e-17
6282.00174 1.28489e-17
6283.00164 1.28485e-17
6284.00154 1.28461e-17
6285.00144 1.28373e-17
6286.00134 1.28739e-17
6287.00124 1.30029e-17
6288.00114 1.31844e-17
6289.00104 1.30562e-17
6290.00094 1.29849e-17
6291.00084 1.29828e-17
6292.00074 1.29823e-17
6293.00064 1.29819e-17
6294.00054 1.28212e-17
6295.00044 1.28252e-17
6296.00034 1.27412e-17
6297.00024 1.27489e-17
6298.00014 1.28503e-17
6299.00004 1.28498e-17
6299.99994 1.27395e-17
6300.99984 1.28490e-17
6301.99974 1.28938e-17
6302.99964 1.28710e-17
6303.99954 1.30009e-17
6304.99944 1.30184e-17
6305.99934 1.30401e-17
6306.99924 1.30396e-17
6307.99914 1.30212e-17
6308.99904 1.28113e-17
6309.99894 1.25803e-17
6310.99884 1.25019e-17
6311.99874 1.24673e-17
6312.99864 1.23214e-17
6313.99854 1.22573e-17
6314.99844 1.21349e-17
6315.99834 1.22666e-17
6316.99824 1.19976e-17
6317.99814 1.17045e-17
6318.99804 1.15884e-17
6319.99794 1.15513e-17
6320.99784 1.15287e-17
6321.99774 1.14834e-17
6322.99764 1.11324e-17
6323.99754 1.10023e-17
6324.99744 1.08690e-17
6325.99734 1.08681e-17
6326.99724 1.06402e-17
6327.99714 1.03167e-17
6328.99704 1.02364e-17
6329.99694 1.02360e-17
6330.99684 1.01578e-17
6331.99674 1.00964e-17
6332.99664 9.87278e-18
6333.99654 9.92373e-18
6334.99644 9.93750e-18
6335.99634 9.91489e-18
6336.99624 9.85087e-18
6337.99614 9.71260e-18
6338.99604 9.64392e-18
6339.99594 9.56848e-18
6340.99584 9.29738e-18
6341.99574 9.21941e-18
6342.99564 9.18142e-18
6343.99554 9.18112e-18
6344.99544 9.21509e-18
6345.99534 9.25248e-18
6346.99524 9.21790e-18
6347.99514 9.10330e-18
6349.00504 8.96714e-18
6350.00494 8.81003e-18
6351.00484 8.56012e-18
6352.00474 8.32414e-18
6353.00464 8.27821e-18
6354.00454 8.21673e-18
6355.00444 8.23319e-18
6356.00434 8.21619e-18
6357.00424 8.18155e-18
6358.00414 8.21278e-18
6359.00404 8.17198e-18
6360.00394 8.16066e-18
6361.00384 8.16039e-18
6362.00374 8.16013e-18
6363.00364 8.15986e-18
6364.00354 8.15578e-18
6365.00344 8.16748e-18
6366.00334 8.19423e-18
6367.00324 8.17064e-18
6368.00314 8.17037e-18
6369.00304 8.18470e-18
6370.00294 8.15667e-18
6371.00284 8.20438e-18
6372.00274 8.20761e-18
6373.00264 8.49088e-18
6374.00254 8.51862e-18
6375.00244 8.73877e-18
6376.00234 9.08393e-18
6377.00224 9.09790e-18
6378.00214 9.14083e-18
6379.00204 8.79703e-18
6380.00194 8.86052e-18
6381.00184 8.86023e-18
6382.00174 8.95589e-18
6383.00164 9.13362e-18
6384.00154 9.20960e-18
6385.00144 9.43343e-18
6386.00134 9.61152e-18
6387.00124 9.69387e-18
6388.00114 9.72225e-18
6389.00104 9.72194e-18
6390.00094 9.76427e-18
6391.00084 9.76395e-18
6392.00074 9.74763e-18
6393.00064 9.75141e-18
6394.00054 9.79471e-18
6395.00044 1.00976e-17
6396.00034 1.04458e-17
6397.00024 1.04860e-17
6398.00014 1.04951e-17
6399.00004 1.07024e-17
6399.99994 1.08213e-17
6400.99984 1.14773e-17
6401.99974 1.21126e-17
6402.99964 1.28534e-17
6403.99954 1.32432e-17
6404.99944 1.33444e-17
6405.99934 1.36497e-17
6406.99924 1.37253e-17
6407.99914 1.39633e-17
6408.99904 1.39762e-17
6409.99894 1.39998e-17
6410.99884 1.41733e-17
6411.99874 1.41729e-17
6412.99864 1.47123e-17
6413.99854 1.52211e-17
6414.99844 1.53204e-17
6415.99834 1.53388e-17
6416.99824 1.54258e-17
6417.99814 1.57841e-17
6418.99804 1.58538e-17
6419.99794 1.58609e-17
6420.99784 1.59197e-17
6421.99774 1.59965e-17
6422.99764 1.60555e-17
6423.99754 1.60588e-17
6424.99744 1.62009e-17
6425.99734 1.62192e-17
6426.99724 1.62850e-17
6427.99714 1.69362e-17
6428.99704 1.69797e-17
6429.99694 1.71069e-17
6430.99684 1.75289e-17
6431.99674 1.78589e-17
6432.99664 1.79935e-17
6433.99654 1.83097e-17
6434.99644 1.83389e-17
6435.99634 1.83587e-17
6436.99624 1.83581e-17
6437.99614 1.80775e-17
6438.99604 1.81093e-17
6439.99594 1.86001e-17
6440.99584 1.90491e-17
6441.99574 1.92487e-17
6442.99564 2.02839e-17
6443.99554 2.03809e-17
6444.99544 2.08277e-17
6445.99534 2.11311e-17
6447.00523 2.12149e-17
6448.00513 2.09479e-17
6449.00504 2.09472e-17
6450.00493 2.08665e-17
6451.00483 2.12122e-17
6452.00473 2.12160e-17
6453.00463 2.13149e-17
6454.00454 2.13148e-17
6455.00443 2.14017e-17
6456.00433 2.16633e-17
6457.00423 2.17935e-17
6458.00414 2.15338e-17
6459.00403 2.21511e-17
6460.00393 2.27146e-17
6461.00383 2.27564e-17
6462.00373 2.27557e-17
6463.00364 2.27550e-17
6464.00353 2.28611e-17
6465.00343 2.28604e-17
6466.00333 2.27528e-17
6467.00324 2.27521e-17
6468.00313 2.28478e-17
6469.00303 2.28441e-17
6470.00293 2.26608e-17
6471.00283 2.28427e-17
6472.00274 2.28420e-17
6473.00263 2.29028e-17
6474.00253 2.29021e-17
6475.00243 2.29530e-17
6476.00234 2.29525e-17
6477.00223 2.30685e-17
6478.00213 2.30159e-17
6479.00203 2.27678e-17
6480.00193 2.27668e-17
6481.00184 2.27661e-17
6482.00173 2.30344e-17
6483.00163 2.31095e-17
6484.00153 2.32044e-17
6485.00144 2.35941e-17
6486.00133 2.37231e-17
6487.00123 2.39750e-17
6488.00113 2.41587e-17
6489.00103 2.42155e-17
6490.00094 2.42792e-17
6491.00083 2.42879e-17
6492.00073 2.42967e-17
6493.00063 2.42384e-17
6494.00054 2.42376e-17
6495.00043 2.42369e-17
6496.00033 2.42936e-17
6497.00023 2.42928e-17
6498.00013 2.42921e-17
6499.00004 2.43556e-17
6499.99993 2.43453e-17
6500.99983 2.43095e-17
6501.99973 2.38700e-17
6502.99964 2.36846e-17
6503.99953 2.36259e-17
6504.99943 2.16532e-17
6505.99933 2.05243e-17
6506.99923 2.03070e-17
6507.99914 2.02057e-17
6508.99903 2.01429e-17
6509.99893 2.00952e-17
6510.99883 2.00286e-17
6511.99874 1.99653e-17
6512.99863 1.97050e-17
6513.99853 1.95020e-17
6514.99843 1.91332e-17
6515.99833 1.90051e-17
6516.99824 1.91320e-17
6517.99813 1.93864e-17
6518.99803 1.95498e-17
6519.99793 1.95017e-17
6520.99784 1.94656e-17
6521.99773 1.92417e-17
6522.99763 1.90776e-17
6523.99753 1.89002e-17
6524.99743 1.85183e-17
6525.99734 1.83676e-17
6526.99723 1.81979e-17
6527.99713 1.80673e-17
6528.99703 1.79737e-17
6529.99694 1.77677e-17
6530.99683 1.76979e-17
6531.99673 1.76496e-17
6532.99663 1.73822e-17
6533.99653 1.68327e-17
6534.99644 1.69813e-17
6535.99633 1.69807e-17
6536.99623 1.68266e-17
6537.99613 1.65972e-17
6538.99604 1.64257e-17
6539.99593 1.62534e-17
6540.99583 1.59446e-17
6541.99573 1.58256e-17
6542.99563 1.57901e-17
6543.99554 1.57198e-17
6544.99543 1.56923e-17
6545.99533 1.53640e-17
6546.99523 1.53098e-17
6547.99514 1.53631e-17
6549.00503 1.53626e-17
6550.00493 1.53332e-17
6551.00483 1.53176e-17
6552.00473 1.52522e-17
6553.00463 1.52443e-17
6554.00453 1.52117e-17
6555.00443 1.51626e-17
6556.00433 1.51374e-17
6557.00423 1.51369e-17
6558.00413 1.51365e-17
6559.00403 1.52241e-17
6560.00393 1.52798e-17
6561.00383 1.53711e-17
6562.00373 1.55081e-17
6563.00363 1.55532e-17
6564.00353 1.55675e-17
6565.00343 1.55066e-17
6566.00333 1.53670e-17
6567.00323 1.53278e-17
6568.00313 1.55034e-17
6569.00303 1.54129e-17
6570.00293 1.54219e-17
6571.00283 1.55680e-17
6572.00273 1.55675e-17
6573.00263 1.56234e-17
6574.00253 1.57364e-17
6575.00243 1.57359e-17
6576.00233 1.57445e-17
6577.00223 1.57973e-17
6578.00213 1.58005e-17
6579.00203 1.58220e-17
6580.00193 1.60564e-17
6581.00183 1.63012e-17
6582.00173 1.63873e-17
6583.00163 1.64761e-17
6584.00153 1.65958e-17
6585.00143 1.66287e-17
6586.00133 1.66467e-17
6587.00123 1.66440e-17
6588.00113 1.65927e-17
6589.00103 1.66299e-17
6590.00093 1.69440e-17
6591.00083 1.71650e-17
6592.00073 1.72678e-17
6593.00063 1.75407e-17
6594.00053 1.80174e-17
6595.00043 1.82036e-17
6596.00033 1.82105e-17
6597.00023 1.83214e-17
6598.00013 1.83208e-17
6599.00003 1.87072e-17
6599.99993 1.91769e-17
6600.99983 1.92967e-17
6601.99973 1.93458e-17
6602.99963 1.95163e-17
6603.99953 1.96850e-17
6604.99943 1.97200e-17
6605.99933 1.98145e-17
6606.99923 1.98124e-17
6607.99913 1.98756e-17
6608.99903 1.98865e-17
6609.99893 1.99411e-17
6610.99883 2.03015e-17
6611.99873 2.03988e-17
6612.99863 2.06636e-17
6613.99853 2.10895e-17
6614.99843 2.11942e-17
6615.99833 2.12429e-17
6616.99823 2.13968e-17
6617.99813 2.15688e-17
6618.99803 2.16081e-17
6619.99793 2.17319e-17
6620.99783 2.18224e-17
6621.99773 2.20100e-17
6622.99763 2.21506e-17
6623.99753 2.22007e-17
6624.99743 2.23403e-17
6625.99733 2.23440e-17
6626.99723 2.22854e-17
6627.99713 2.22854e-17
6628.99703 2.21622e-17
6629.99693 2.24492e-17
6630.99683 2.24745e-17
6631.99673 2.25246e-17
6632.99663 2.25239e-17
6633.99653 2.25232e-17
6634.99643 2.25225e-17
6635.99633 2.25218e-17
6636.99623 2.26142e-17
6637.99613 2.25840e-17
6638.99603 2.25833e-17
6639.99593 2.25563e-17
6640.99583 2.25800e-17
6641.99573 2.28052e-17
6642.99563 2.29746e-17
6643.99553 2.30724e-17
6644.99543 2.30111e-17
6645.99533 2.30496e-17
6647.00523 2.32019e-17
6648.00513 2.33683e-17
6649.00503 2.35626e-17
6650.00493 2.35973e-17
6651.00483 2.36050e-17
6652.00473 2.36368e-17
6653.00463 2.36361e-17
6654.00453 2.36039e-17
6655.00443 2.36021e-17
6656.00433 2.39018e-17
6657.00423 2.45544e-17
6658.00413 2.44493e-17
6659.00403 2.43869e-17
6660.00393 2.40532e-17
6661.00383 2.33249e-17
6662.00373 2.32310e-17
6663.00363 2.22141e-17
6664.00353 2.14003e-17
6665.00343 2.13528e-17
6666.00333 2.12554e-17
6667.00323 2.10152e-17
6668.00313 2.10145e-17
6669.00303 2.11431e-17
6670.00293 2.11866e-17
6671.00283 2.11130e-17
6672.00273 2.11229e-17
6673.00263 2.11052e-17
6674.00253 2.10201e-17
6675.00243 2.07464e-17
6676.00233 2.07144e-17
6677.00223 2.07121e-17
6678.00213 2.06396e-17
6679.00203 2.05497e-17
6680.00193 2.03412e-17
6681.00183 2.02786e-17
6682.00173 2.01204e-17
6683.00163 2.00706e-17
6684.00153 2.00622e-17
6685.00143 2.00172e-17
6686.00133 1.97910e-17
6687.00123 1.97462e-17
6688.00113 1.95297e-17
6689.00103 1.92824e-17
6690.00093 1.92560e-17
6691.00083 1.92554e-17
6692.00073 1.92549e-17
6693.00063 1.91798e-17
6694.00053 1.92510e-17
6695.00043 1.92339e-17
6696.00033 1.91667e-17
6697.00023 1.89766e-17
6698.00013 1.86286e-17
6699.00003 1.86051e-17
6699.99993 1.85535e-17
6700.99983 1.85332e-17
6701.99973 1.85327e-17
6702.99963 1.82928e-17
6703.99953 1.81801e-17
6704.99943 1.76649e-17
6705.99933 1.76815e-17
6706.99923 1.75919e-17
6707.99913 1.75617e-17
6708.99903 1.75704e-17
6709.99893 1.75235e-17
6710.99883 1.74004e-17
6711.99873 1.72444e-17
6712.99863 1.69783e-17
6713.99853 1.70234e-17
6714.99843 1.69410e-17
6715.99833 1.69269e-17
6716.99823 1.69471e-17
6717.99813 1.69283e-17
6718.99803 1.67548e-17
6719.99793 1.67543e-17
6720.99783 1.68474e-17
6721.99773 1.68516e-17
6722.99763 1.67528e-17
6723.99753 1.67014e-17
6724.99743 1.65986e-17
6725.99733 1.64915e-17
6726.99723 1.63505e-17
6727.99713 1.62885e-17
6728.99703 1.62657e-17
6729.99693 1.60963e-17
6730.99683 1.61213e-17
6731.99673 1.60282e-17
6732.99663 1.57956e-17
6733.99653 1.57565e-17
6734.99643 1.57130e-17
6735.99633 1.54770e-17
6736.99623 1.50844e-17
6737.99613 1.45290e-17
6738.99603 1.44005e-17
6739.99593 1.40633e-17
6740.99583 1.38936e-17
6741.99573 1.40554e-17
6742.99563 1.40550e-17
6743.99553 1.40530e-17
6744.99543 1.40526e-17
6745.99533 1.39748e-17
6746.99523 1.38512e-17
6747.99513 1.38507e-17
6749.00503 1.38417e-17
6750.00493 1.37743e-17
6751.00483 1.37127e-17
6752.00473 1.37114e-17
6753.00463 1.37118e-17
6754.00453 1.37194e-17
6755.00443 1.37334e-17
6756.00433 1.37330e-17
6757.00423 1.37366e-17
6758.00413 1.36182e-17
6759.00403 1.34711e-17
6760.00393 1.33526e-17
6761.00383 1.31735e-17
6762.00373 1.28968e-17
6763.00363 1.26102e-17
6764.00353 1.22824e-17
6765.00343 1.18946e-17
6766.00333 1.13159e-17
6767.00323 1.07247e-17
6768.00313 1.07725e-17
6769.00303 1.08580e-17
6770.00293 1.08576e-17
6771.00283 1.08573e-17
6772.00273 1.08570e-17
6773.00263 1.08169e-17
6774.00253 1.07373e-17
6775.00243 1.07370e-17
6776.00233 1.06397e-17
6777.00223 1.06506e-17
6778.00213 1.07466e-17
6779.00203 1.09310e-17
6780.00193 1.09672e-17
6781.00183 1.10851e-17
6782.00173 1.11543e-17
6783.00163 1.11806e-17
6784.00153 1.11771e-17
6785.00143 1.11081e-17
6786.00133 1.10706e-17
6787.00123 1.10702e-17
6788.00113 1.10109e-17
6789.00103 1.09755e-17
6790.00093 1.08846e-17
6791.00083 1.06380e-17
6792.00073 1.04636e-17
6793.00063 1.04190e-17
6794.00053 1.03387e-17
6795.00043 1.03280e-17
6796.00033 1.02502e-17
6797.00023 1.01230e-17
6798.00013 1.01242e-17
6799.00003 1.01685e-17
6799.99993 1.01623e-17
6800.99983 1.00958e-17
6801.99973 1.00524e-17
6802.99963 9.97571e-18
6803.99953 9.96711e-18
6804.99943 9.95362e-18
6805.99933 9.89854e-18
6806.99923 9.81390e-18
6807.99913 9.84512e-18
6808.99903 9.85415e-18
6809.99893 9.85385e-18
6810.99883 9.85355e-18
6811.99873 9.85325e-18
6812.99863 9.80567e-18
6813.99853 9.77186e-18
6814.99843 9.62201e-18
6815.99833 9.27433e-18
6816.99823 8.92529e-18
6817.99813 8.87579e-18
6818.99803 8.80937e-18
6819.99793 8.74538e-18
6820.99783 8.65606e-18
6821.99773 8.55328e-18
6822.99763 8.48318e-18
6823.99753 8.45914e-18
6824.99743 8.27613e-18
6825.99733 8.34234e-18
6826.99723 8.29884e-18
6827.99713 8.25366e-18
6828.99703 8.16817e-18
6829.99693 8.09213e-18
6830.99683 7.94257e-18
6831.99673 7.75339e-18
6832.99663 7.63492e-18
6833.99653 7.60389e-18
6834.99643 7.56523e-18
6835.99633 7.51231e-18
6836.99623 7.51208e-18
6837.99613 7.55295e-18
6838.99603 7.54707e-18
6839.99593 7.43651e-18
6840.99583 7.34804e-18
6841.99573 7.31539e-18
6842.99563 7.15412e-18
6843.99553 7.04806e-18
6844.99543 7.05645e-18
6845.99533 7.04310e-18
6847.00523 6.98312e-18
6848.00513 6.95815e-18
6849.00503 6.95793e-18
6850.00493 6.96010e-18
6851.00483 6.94704e-18
6852.00473 6.92676e-18
6853.00463 6.85830e-18
6854.00453 6.80251e-18
6855.00443 6.69351e-18
6856.00433 6.56287e-18
6857.00423 6.50816e-18
6858.00413 6.49991e-18
6859.00403 6.44629e-18
6860.00393 6.42502e-18
6861.00383 6.32122e-18
6862.00373 6.29730e-18
6863.00363 6.30437e-18
6864.00353 6.33297e-18
6865.00343 6.30398e-18
6866.00333 6.27996e-18
6867.00323 6.27223e-18
6868.00313 6.17208e-18
6869.00303 6.05302e-18
6870.00293 5.92272e-18
6871.00283 5.73556e-18
6872.00273 5.71840e-18
6873.00263 5.62310e-18
6874.00253 5.35470e-18
6875.00243 5.32478e-18
6876.00233 5.37437e-18
6877.00223 5.17984e-18
6878.00213 5.38660e-18
6879.00203 5.36738e-18
6880.00193 5.35371e-18
6881.00183 5.33346e-18
6882.00173 5.32664e-18
6883.00163 5.32256e-18
6884.00153 5.31345e-18
6885.00143 5.26073e-18
6886.00133 5.06327e-18
6887.00123 5.17749e-18
6888.00113 5.16828e-18
6889.00103 5.15309e-18
6890.00093 5.15220e-18
6891.00083 5.15204e-18
6892.00073 5.15188e-18
6893.00063 5.15246e-18
6894.00053 5.15157e-18
6895.00043 4.94207e-18
6896.00033 4.93618e-18
6897.00023 4.93837e-18
6898.00013 4.92539e-18
6899.00003 4.92523e-18
6899.99993 4.92508e-18
6900.99983 4.92493e-18
6901.99973 4.93970e-18
6902.99963 5.03031e-18
6903.99953 5.04126e-18
6904.99943 5.05245e-18
6905.99933 5.18924e-18
6906.99923 5.25047e-18
6907.99913 5.28130e-18
6908.99903 5.32874e-18
6909.99893 5.42905e-18
6910.99883 5.57522e-18
6911.99873 5.73373e-18
6912.99863 5.90122e-18
6913.99853 6.09414e-18
6914.99843 6.13299e-18
6915.99833 6.25017e-18
6916.99823 6.26663e-18
6917.99813 6.26644e-18
6918.99803 6.30147e-18
6919.99793 6.31514e-18
6920.99783 6.40686e-18
6921.99773 6.41073e-18
6922.99763 6.41239e-18
6923.99753 6.50881e-18
6924.99743 6.82270e-18
6925.99733 7.06126e-18
6926.99723 7.22456e-18
6927.99713 7.37539e-18
6928.99703 7.48944e-18
6929.99693 7.59234e-18
6930.99683 7.63270e-18
6931.99673 7.64849e-18
6932.99663 7.89243e-18
6933.99653 8.24411e-18
6934.99643 8.46010e-18
6935.99633 8.64880e-18
6936.99623 8.85989e-18
6937.99613 9.19186e-18
6938.99603 9.55010e-18
6939.99593 9.94531e-18
6940.99583 1.02307e-17
6941.99573 1.04921e-17
6942.99563 1.05283e-17
6943.99553 1.05541e-17
6944.99543 1.06887e-17
6945.99533 1.06961e-17
6946.99523 1.08935e-17
6947.99513 1.09635e-17
6949.00503 1.11614e-17
6950.00493 1.12127e-17
6951.00483 1.12505e-17
6952.00473 1.16351e-17
6953.00463 1.16764e-17
6954.00453 1.16824e-17
6955.00443 1.17117e-17
6956.00433 1.17149e-17
6957.00423 1.18074e-17
6958.00413 1.18387e-17
6959.00403 1.20640e-17
6960.00393 1.23304e-17
6961.00383 1.24803e-17
6962.00373 1.25246e-17
6963.00363 1.25612e-17
6964.00353 1.25608e-17
6965.00343 1.26324e-17
6966.00333 1.28534e-17
6967.00323 1.28965e-17
6968.00313 1.31526e-17
6969.00303 1.35366e-17
6970.00293 1.38206e-17
6971.00283 1.41273e-17
6972.00273 1.44172e-17
6973.00263 1.44168e-17
6974.00253 1.43817e-17
6975.00243 1.45053e-17
6976.00233 1.45668e-17
6977.00223 1.47267e-17
6978.00213 1.47263e-17
6979.00203 1.47514e-17
6980.00193 1.49581e-17
6981.00183 1.50788e-17
6982.00173 1.50794e-17
6983.00163 1.50789e-17
6984.00153 1.49562e-17
6985.00143 1.53293e-17
6986.00133 1.58397e-17
6987.00123 1.60473e-17
6988.00113 1.63805e-17
6989.00103 1.64800e-17
6990.00093 1.65570e-17
6991.00083 1.68569e-17
6992.00073 1.72572e-17
6993.00063 1.73991e-17
6994.00053 1.73756e-17
6995.00043 1.73751e-17
6996.00033 1.73811e-17
6997.00023 1.73969e-17
6998.00013 1.76676e-17
6999.00003 1.78186e-17
6999.99993 1.78037e-17
7000.99983 1.78029e-17
7001.99973 1.78023e-17
7002.99963 1.78065e-17
7003.99953 1.78012e-17
7004.99943 1.78007e-17
7005.99933 1.76853e-17
7006.99923 1.78079e-17
7007.99913 1.79461e-17
7008.99903 1.81755e-17
7009.99893 1.82868e-17
7010.99883 1.85892e-17
7011.99873 1.85907e-17
7012.99863 1.89256e-17
7013.99853 1.89669e-17
7014.99843 1.90401e-17
7015.99833 1.94586e-17
7016.99823 1.98220e-17
7017.99813 1.98893e-17
7018.99803 1.98949e-17
7019.99793 1.99815e-17
7020.99783 1.99808e-17
7021.99773 1.99758e-17
7022.99763 1.99010e-17
7023.99753 1.99010e-17
7024.99743 1.99099e-17
7025.99733 1.99093e-17
7026.99723 1.99076e-17
7027.99713 1.98830e-17
7028.99703 1.98481e-17
7029.99693 1.98519e-17
7030.99683 1.98512e-17
7031.99673 1.97816e-17
7032.99663 1.96512e-17
7033.99653 1.94670e-17
7034.99643 1.93590e-17
7035.99633 1.93979e-17
7036.99623 1.93973e-17
7037.99613 1.92912e-17
7038.99603 1.90395e-17
7039.99593 1.89639e-17
7040.99583 1.88442e-17
7041.99573 1.84128e-17
7042.99563 1.82441e-17
7043.99553 1.81214e-17
7044.99543 1.80825e-17
7045.99533 1.78902e-17
7047.00523 1.78603e-17
7048.00513 1.78513e-17
7049.00503 1.74613e-17
7050.00493 1.69472e-17
7051.00483 1.69910e-17
7052.00473 1.68989e-17
7053.00463 1.68318e-17
7054.00453 1.67380e-17
7055.00443 1.65037e-17
7056.00433 1.63438e-17
7057.00423 1.63096e-17
7058.00413 1.62465e-17
7059.00403 1.61553e-17
7060.00393 1.59931e-17
7061.00383 1.58618e-17
7062.00373 1.58427e-17
7063.00363 1.57644e-17
7064.00353 1.57242e-17
7065.00343 1.55913e-17
7066.00333 1.56114e-17
7067.00323 1.55039e-17
7068.00313 1.51764e-17
7069.00303 1.51152e-17
7070.00293 1.50254e-17
7071.00283 1.48671e-17
7072.00273 1.47937e-17
7073.00263 1.45098e-17
7074.00253 1.42848e-17
7075.00243 1.46398e-17
7076.00233 1.46333e-17
7077.00223 1.46329e-17
7078.00213 1.45888e-17
7079.00203 1.41803e-17
7080.00193 1.40553e-17
7081.00183 1.38983e-17
7082.00173 1.37939e-17
7083.00163 1.35229e-17
7084.00153 1.34512e-17
7085.00143 1.34460e-17
7086.00133 1.34451e-17
7087.00123 1.34451e-17
7088.00113 1.34071e-17
7089.00103 1.33334e-17
7090.00093 1.28348e-17
7091.00083 1.26834e-17
7092.00073 1.28340e-17
7093.00063 1.27481e-17
7094.00053 1.26822e-17
7095.00043 1.24360e-17
7096.00033 1.21916e-17
7097.00023 1.21227e-17
7098.00013 1.18409e-17
7099.00003 1.17746e-17
7099.99993 1.17551e-17
7100.99983 1.16791e-17
7101.99973 1.16117e-17
7102.99963 1.16053e-17
7103.99953 1.16049e-17
7104.99943 1.15365e-17
7105.99933 1.14456e-17
7106.99923 1.11799e-17
7107.99913 1.10764e-17
7108.99903 1.10221e-17
7109.99893 1.10052e-17
7110.99883 1.08731e-17
7111.99873 1.08278e-17
7112.99863 1.06794e-17
7113.99853 1.07580e-17
7114.99843 1.07576e-17
7115.99833 1.07486e-17
7116.99823 1.06357e-17
7117.99813 1.05765e-17
7118.99803 1.03952e-17
7119.99793 1.02888e-17
7120.99783 1.02884e-17
7121.99773 1.02881e-17
7122.99763 1.02891e-17
7123.99753 1.04672e-17
7124.99743 1.05079e-17
7125.99733 1.05881e-17
7126.99723 1.06099e-17
7127.99713 1.06096e-17
7128.99703 1.05518e-17
7129.99693 1.05342e-17
7130.99683 1.05115e-17
7131.99673 1.05011e-17
7132.99663 1.04767e-17
7133.99653 1.04786e-17
7134.99643 1.09007e-17
7135.99633 1.10051e-17
7136.99623 1.14262e-17
7137.99613 1.14259e-17
7138.99603 1.14255e-17
7139.99593 1.13111e-17
7140.99583 1.09653e-17
7141.99573 1.09650e-17
7142.99563 1.09449e-17
7143.99553 1.09847e-17
7144.99543 1.11161e-17
7145.99533 1.15739e-17
7146.99523 1.17742e-17
7147.99513 1.17745e-17
7149.00503 1.17735e-17
7150.00493 1.16258e-17
7151.00483 1.15604e-17
7152.00473 1.14747e-17
7153.00463 1.14665e-17
7154.00453 1.14594e-17
7155.00443 1.14807e-17
7156.00433 1.15908e-17
7157.00423 1.17205e-17
7158.00413 1.17310e-17
7159.00403 1.17943e-17
7160.00393 1.17939e-17
7161.00383 1.17935e-17
7162.00373 1.17641e-17
7163.00363 1.17514e-17
7164.00353 1.16770e-17
7165.00343 1.16747e-17
7166.00333 1.17503e-17
7167.00323 1.21329e-17
7168.00313 1.24014e-17
7169.00303 1.24010e-17
7170.00293 1.25019e-17
7171.00283 1.25080e-17
7172.00273 1.25422e-17
7173.00263 1.25596e-17
7174.00253 1.24713e-17
7175.00243 1.25445e-17
7176.00233 1.25441e-17
7177.00223 1.25852e-17
7178.00213 1.25848e-17
7179.00203 1.27565e-17
7180.00193 1.28133e-17
7181.00183 1.29101e-17
7182.00173 1.32405e-17
7183.00163 1.32636e-17
7184.00153 1.34268e-17
7185.00143 1.35265e-17
7186.00133 1.33047e-17
7187.00123 1.32526e-17
7188.00113 1.30509e-17
7189.00103 1.30800e-17
7190.00093 1.31610e-17
7191.00083 1.33319e-17
7192.00073 1.34026e-17
7193.00063 1.40048e-17
7194.00053 1.40426e-17
7195.00043 1.40407e-17
7196.00033 1.39945e-17
7197.00023 1.39897e-17
7198.00013 1.33772e-17
7199.00003 1.33357e-17
7199.99993 1.33532e-17
7200.99983 1.33571e-17
7201.99973 1.34024e-17
7202.99963 1.40630e-17
7203.99953 1.41163e-17
7204.99943 1.41707e-17
7205.99933 1.45505e-17
7206.99923 1.47603e-17
7207.99913 1.46404e-17
7208.99903 1.42165e-17
7209.99893 1.41570e-17
7210.99883 1.40592e-17
7211.99873 1.40559e-17
7212.99863 1.41094e-17
7213.99853 1.43446e-17
7214.99843 1.43922e-17
7215.99833 1.44368e-17
7216.99823 1.44811e-17
7217.99813 1.44358e-17
7218.99803 1.43974e-17
7219.99793 1.41003e-17
7220.99783 1.40238e-17
7221.99773 1.39349e-17
7222.99763 1.39326e-17
7223.99753 1.39071e-17
7224.99743 1.38570e-17
7225.99733 1.38162e-17
7226.99723 1.38492e-17
7227.99713 1.38703e-17
7228.99703 1.36939e-17
7229.99693 1.36794e-17
7230.99683 1.36577e-17
7231.99673 1.35658e-17
7232.99663 1.34734e-17
7233.99653 1.34211e-17
7234.99643 1.34725e-17
7235.99633 1.34816e-17
7236.99623 1.33961e-17
7237.99613 1.32325e-17
7238.99603 1.32589e-17
7239.99593 1.32585e-17
7240.99583 1.32125e-17
7241.99573 1.30915e-17
7242.99563 1.30893e-17
7243.99553 1.30889e-17
7244.99543 1.30884e-17
7245.99533 1.30876e-17
7247.00523 1.31318e-17
7248.00513 1.31336e-17
7249.00503 1.31314e-17
7250.00493 1.31520e-17
7251.00483 1.31772e-17
7252.00473 1.30346e-17
7253.00463 1.30342e-17
7254.00453 1.30051e-17
7255.00443 1.29079e-17
7256.00433 1.28545e-17
7257.00423 1.29336e-17
7258.00413 1.28446e-17
7259.00403 1.29144e-17
7260.00393 1.27139e-17
7261.00383 1.25210e-17
7262.00373 1.24638e-17
7263.00363 1.24634e-17
7264.00353 1.25071e-17
7265.00343 1.25340e-17
7266.00333 1.24242e-17
7267.00323 1.24238e-17
7268.00313 1.24234e-17
7269.00303 1.25382e-17
7270.00293 1.24226e-17
7271.00283 1.24164e-17
7272.00273 1.24208e-17
7273.00263 1.24998e-17
7274.00253 1.25609e-17
7275.00243 1.25618e-17
7276.00233 1.25633e-17
7277.00223 1.25798e-17
7278.00213 1.27740e-17
7279.00203 1.27735e-17
7280.00193 1.25871e-17
7281.00183 1.25045e-17
7282.00173 1.24060e-17
7283.00163 1.24056e-17
7284.00153 1.24831e-17
7285.00143 1.24949e-17
7286.00133 1.23883e-17
7287.00123 1.22829e-17
7288.00113 1.22464e-17
7289.00103 1.21942e-17
7290.00093 1.22195e-17
7291.00083 1.21468e-17
7292.00073 1.20142e-17
7293.00063 1.19300e-17
7294.00053 1.18919e-17
7295.00043 1.18637e-17
7296.00033 1.17165e-17
7297.00023 1.16858e-17
7298.00013 1.18285e-17
7299.00003 1.18375e-17
7299.99993 1.19736e-17
7300.99983 1.20057e-17
7301.99973 1.20069e-17
7302.99963 1.20065e-17
7303.99953 1.21239e-17
7304.99943 1.21355e-17
7305.99933 1.22322e-17
7306.99923 1.20888e-17
7307.99913 1.20884e-17
7308.99903 1.20880e-17
