# wavelength flux
3890.00096 -3.56537e-18
3891.00086 -3.56513e-18
3892.00076 -3.56491e-18
3893.00066 -1.77567e-18
3894.00056 -3.56445e-18
3895.00046 -3.56422e-18
3896.00036 3.29038e-18
3897.00026 3.29017e-18
3898.00016 7.73161e-18
3899.00006 7.73111e-18
3899.99996 7.73062e-18
3900.99986 1.01916e-17
3901.99976 9.64124e-18
3902.99966 9.64063e-18
3903.99956 9.64001e-18
3904.99946 7.83597e-18
3905.99936 7.83547e-18
3906.99926 7.83497e-18
3907.99916 8.59013e-18
3908.99906 7.72619e-18
3909.99896 7.83348e-18
3910.99886 7.83299e-18
3911.99876 7.83249e-18
3912.99866 8.69574e-18
3913.99856 8.58687e-18
3914.99846 8.58633e-18
3915.99836 8.28795e-18
3916.99826 8.69355e-18
3917.99816 8.28691e-18
3918.99806 8.58418e-18
3919.99796 8.69192e-18
3920.99786 8.58310e-18
3921.99776 8.83200e-18
3922.99766 8.83145e-18
3923.99756 8.83090e-18
3924.99746 8.97071e-18
3925.99736 8.97015e-18
3926.99726 8.68812e-18
3927.99716 8.82870e-18
3928.99706 8.96848e-18
3929.99696 8.82761e-18
3930.99686 8.96736e-18
3931.99676 9.75614e-18
3932.99666 9.75553e-18
3933.99656 1.05249e-17
3934.99646 1.22174e-17
3935.99636 1.05236e-17
3936.99626 1.05230e-17
3937.99616 1.05223e-17
3938.99606 1.05217e-17
3939.99596 1.05211e-17
3940.99586 9.75073e-18
3941.99576 9.75013e-18
3942.99566 9.74953e-18
3943.99556 9.74893e-18
3944.99546 9.55747e-18
3945.99536 9.55688e-18
3946.99526 9.55630e-18
3948.00516 8.89912e-18
3949.00506 7.14041e-18
3950.00496 7.13997e-18
3951.00486 7.13954e-18
3952.00476 3.77386e-18
3953.00466 3.77363e-18
3954.00456 3.85291e-18
3955.00446 3.85267e-18
3956.00436 7.13737e-18
3957.00426 7.88690e-18
3958.00416 7.88642e-18
3959.00406 7.88594e-18
3960.00396 8.89263e-18
3961.00386 7.13521e-18
3962.00376 6.91564e-18
3963.00366 7.13435e-18
3964.00356 7.88356e-18
3965.00346 7.13349e-18
3966.00336 6.91398e-18
3967.00326 6.91356e-18
3968.00316 6.64892e-18
3969.00306 6.64852e-18
3970.00296 4.87942e-18
3971.00286 4.57575e-18
3972.00276 4.57547e-18
3973.00266 6.64693e-18
3974.00256 6.64653e-18
3975.00246 6.64613e-18
3976.00236 6.68264e-18
3977.00226 6.64534e-18
3978.00216 6.68184e-18
3979.00206 7.04436e-18
3980.00196 6.60146e-18
3981.00186 5.76780e-18
3982.00176 6.60068e-18
3983.00166 6.67984e-18
3984.00156 7.12098e-18
3985.00146 7.12056e-18
3986.00136 7.04142e-18
3987.00126 7.11971e-18
3988.00116 7.52549e-18
3989.00106 7.52505e-18
3990.00096 7.03975e-18
3991.00086 6.59715e-18
3992.00076 6.39110e-18
3993.00066 6.26802e-18
3994.00056 5.76335e-18
3995.00046 5.76301e-18
3996.00036 5.76267e-18
3997.00026 6.26653e-18
3998.00016 6.26616e-18
3999.00006 5.03765e-18
3999.99996 6.26543e-18
4000.99986 6.26506e-18
4001.99976 6.26469e-18
4002.99966 5.03646e-18
4003.99956 6.26395e-18
4004.99946 5.03587e-18
4005.99936 6.40526e-18
4006.99926 6.40489e-18
4007.99916 7.89880e-18
4008.99906 9.75748e-18
4009.99896 8.88511e-18
4010.99886 9.31319e-18
4011.99876 9.75576e-18
4012.99866 9.89633e-18
4013.99856 9.75462e-18
4014.99846 9.89517e-18
4015.99836 9.89459e-18
4016.99826 9.89401e-18
4017.99816 1.00435e-17
4018.99806 1.06079e-17
4019.99796 1.06073e-17
4020.99786 1.08725e-17
4021.99776 1.19571e-17
4022.99766 1.19564e-17
4023.99756 1.08706e-17
4024.99746 1.06589e-17
4025.99736 1.06583e-17
4026.99726 1.06576e-17
4027.99716 1.08681e-17
4028.99706 1.06564e-17
4029.99696 1.08668e-17
4030.99686 1.08662e-17
4031.99676 1.20102e-17
4032.99666 1.20095e-17
4033.99656 1.22409e-17
4034.99646 1.22402e-17
4035.99636 1.24002e-17
4036.99626 1.26872e-17
4037.99616 1.23987e-17
4038.99606 1.31487e-17
4039.99596 1.31480e-17
4040.99586 1.31472e-17
4041.99576 1.31464e-17
4042.99566 1.36055e-17
4043.99556 1.31449e-17
4044.99546 1.31442e-17
4045.99536 1.31434e-17
4046.99526 1.25923e-17
4048.00516 1.25916e-17
4049.00506 1.35072e-17
4050.00496 1.35064e-17
4051.00486 1.25894e-17
4052.00476 1.36608e-17
4053.00466 1.36600e-17
4054.00456 1.25872e-17
4055.00446 1.10087e-17
4056.00436 1.06267e-17
4057.00426 1.04236e-17
4058.00416 1.04230e-17
4059.00406 1.05827e-17
4060.00396 1.04218e-17
4061.00386 1.04212e-17
4062.00376 1.05809e-17
4063.00366 1.09753e-17
4064.00356 1.10030e-17
4065.00346 1.27696e-17
4066.00336 1.10017e-17
4067.00326 1.23805e-17
4068.00316 1.17537e-17
4069.00306 1.09998e-17
4070.00296 1.04158e-17
4071.00286 1.09703e-17
4072.00276 1.09696e-17
4073.00266 1.16699e-17
4074.00256 1.16692e-17
4075.00246 1.16686e-17
4076.00236 1.23741e-17
4077.00226 1.23733e-17
4078.00216 1.23726e-17
4079.00206 1.17463e-17
4080.00196 1.16652e-17
4081.00186 1.02489e-17
4082.00176 1.11405e-17
4083.00166 9.99830e-18
4084.00156 9.99773e-18
4085.00146 1.02465e-17
4086.00136 1.08478e-17
4087.00126 1.08472e-17
4088.00116 1.02448e-17
4089.00106 1.08460e-17
4090.00096 9.99428e-18
4091.00086 1.02430e-17
4092.00076 9.99313e-18
4093.00066 9.99256e-18
4094.00056 1.02412e-17
4095.00046 1.08422e-17
4096.00036 1.04934e-17
4097.00026 1.08410e-17
4098.00016 1.11990e-17
4099.00006 1.11984e-17
4099.99996 1.13702e-17
4100.99986 1.08385e-17
4101.99976 1.04898e-17
4102.99966 1.03720e-17
4103.99956 1.11952e-17
4104.99946 1.03708e-17
4105.99936 1.03702e-17
4106.99926 1.03696e-17
4107.99916 1.03690e-17
4108.99906 9.86375e-18
4109.99896 8.86783e-18
4110.99886 8.86732e-18
4111.99876 7.90919e-18
4112.99866 8.76961e-18
4113.99856 8.76911e-18
4114.99846 6.19060e-18
4115.99836 5.86959e-18
4116.99826 6.18989e-18
4117.99816 6.18954e-18
4118.99806 6.18918e-18
4119.99796 7.90555e-18
4120.99786 6.18847e-18
4121.99776 7.90465e-18
4122.99766 7.90419e-18
4123.99756 7.90374e-18
4124.99746 6.18704e-18
4125.99736 9.18915e-18
4126.99726 9.32949e-18
4127.99716 1.06818e-17
4128.99706 1.12485e-17
4129.99696 1.12479e-17
4130.99686 1.19764e-17
4131.99676 1.19757e-17
4132.99666 1.23544e-17
4133.99656 1.19744e-17
4134.99646 1.19737e-17
4135.99636 1.09680e-17
4136.99626 1.09674e-17
4137.99616 1.09667e-17
4138.99606 1.05966e-17
4139.99596 1.05960e-17
4140.99586 1.09648e-17
4141.99576 1.09642e-17
4142.99566 1.09636e-17
4143.99556 1.05935e-17
4144.99546 9.86366e-18
4145.99536 1.05923e-17
4147.00526 1.05917e-17
4148.00516 1.05911e-17
4149.00506 8.64802e-18
4150.00496 9.73413e-18
4151.00486 1.05893e-17
4152.00476 1.08254e-17
4153.00466 1.10244e-17
4154.00456 1.08241e-17
4155.00446 1.08235e-17
4156.00436 1.10225e-17
4157.00426 1.10218e-17
4158.00416 1.08216e-17
4159.00406 1.06471e-17
4160.00396 1.04116e-17
4161.00386 1.04110e-17
4162.00376 1.01534e-17
4163.00366 1.01528e-17
4164.00356 9.76501e-18
4165.00346 9.74941e-18
4166.00336 9.76388e-18
4167.00326 9.74828e-18
4168.00316 9.40765e-18
4169.00306 9.45165e-18
4170.00296 9.45110e-18
4171.00286 9.40602e-18
4172.00276 9.17848e-18
4173.00266 8.62922e-18
4174.00256 8.02118e-18
4175.00246 7.15257e-18
4176.00236 7.19800e-18
4177.00226 7.19759e-18
4178.00216 7.15133e-18
4179.00206 7.82376e-18
4180.00196 7.82330e-18
4181.00186 8.01792e-18
4182.00176 7.82239e-18
4183.00166 7.82194e-18
4184.00156 6.60242e-18
4185.00146 6.49365e-18
4186.00136 6.60165e-18
4187.00126 6.49289e-18
4188.00116 6.49251e-18
4189.00106 6.46710e-18
4190.00096 6.76193e-18
4191.00086 6.76154e-18
4192.00076 6.49100e-18
4193.00066 6.49062e-18
4194.00056 6.14311e-18
4195.00046 6.14275e-18
4196.00036 6.46446e-18
4197.00026 6.46408e-18
4198.00016 6.14167e-18
4199.00006 6.46332e-18
4199.99996 6.14095e-18
4200.99986 5.92391e-18
4201.99976 6.54565e-18
4202.99966 6.13987e-18
4203.99956 6.10063e-18
4204.99946 6.10027e-18
4205.99936 6.13879e-18
4206.99926 6.13843e-18
4207.99916 6.13807e-18
4208.99906 6.09884e-18
4209.99896 5.51488e-18
4210.99886 5.51455e-18
4211.99876 5.51423e-18
4212.99866 6.09741e-18
4213.99856 5.51358e-18
4214.99846 6.09669e-18
4215.99836 6.28453e-18
4216.99826 6.53988e-18
4217.99816 6.28379e-18
4218.99806 6.09525e-18
4219.99796 5.14041e-18
4220.99786 5.14011e-18
4221.99776 5.51098e-18
4222.99766 5.51066e-18
4223.99756 5.13920e-18
4224.99746 5.53993e-18
4225.99736 6.96187e-18
4226.99726 6.96146e-18
4227.99716 6.98049e-18
4228.99706 6.96064e-18
4229.99696 5.53829e-18
4230.99686 5.53796e-18
4231.99676 6.95940e-18
4232.99666 5.33485e-18
4233.99656 5.33454e-18
4234.99646 5.53665e-18
4235.99636 5.33390e-18
4236.99626 5.33359e-18
4237.99616 5.53566e-18
4238.99606 5.33295e-18
4239.99596 5.05670e-18
4240.99586 5.44382e-18
4241.99576 5.44350e-18
4242.99566 5.44318e-18
4243.99556 6.51216e-18
4244.99546 6.51178e-18
4245.99536 5.44220e-18
4246.99526 6.51100e-18
4247.99516 6.51061e-18
4248.99506 6.37142e-18
4250.00496 6.50983e-18
4251.00486 6.86097e-18
4252.00476 6.64475e-18
4253.00466 7.13750e-18
4254.00456 7.56877e-18
4255.00446 7.56831e-18
4256.00436 7.66831e-18
4257.00426 8.32405e-18
4258.00416 8.32355e-18
4259.00406 8.47103e-18
4260.00396 8.32255e-18
4261.00386 8.22058e-18
4262.00376 8.32155e-18
4263.00366 8.21959e-18
4264.00356 8.21910e-18
4265.00346 8.21861e-18
4266.00336 8.31955e-18
4267.00326 8.31905e-18
4268.00316 8.44371e-18
4269.00306 8.42573e-18
4270.00296 8.42522e-18
4271.00286 8.42471e-18
4272.00276 8.18638e-18
4273.00266 7.88083e-18
4274.00256 8.18539e-18
4275.00246 7.87988e-18
4276.00236 7.74226e-18
4277.00226 7.87892e-18
4278.00216 7.87845e-18
4279.00206 7.87797e-18
4280.00196 8.41968e-18
4281.00186 8.41917e-18
4282.00176 8.39974e-18
4283.00166 8.43606e-18
4284.00156 9.15818e-18
4285.00146 8.41713e-18
4286.00136 9.15707e-18
4287.00126 9.55445e-18
4288.00116 9.55387e-18
4289.00106 1.01567e-17
4290.00096 1.01561e-17
4291.00086 1.01555e-17
4292.00076 1.07639e-17
4293.00066 1.07633e-17
4294.00056 1.07626e-17
4295.00046 1.07619e-17
4296.00036 1.07625e-17
4297.00026 1.07606e-17
4298.00016 1.07600e-17
4299.00006 1.07593e-17
4299.99996 1.01499e-17
4300.99986 1.01493e-17
4301.99976 9.54572e-18
4302.99966 9.29749e-18
4303.99956 8.97200e-18
4304.99946 9.29635e-18
4305.99936 8.97090e-18
4306.99926 8.75746e-18
4307.99916 8.96980e-18
4308.99906 8.96925e-18
4309.99896 8.54357e-18
4310.99886 8.11390e-18
4311.99876 8.54252e-18
4312.99866 8.11290e-18
4313.99856 8.54147e-18
4314.99846 9.19031e-18
4315.99836 8.54041e-18
4316.99826 8.53989e-18
4317.99816 8.53936e-18
4318.99806 8.12575e-18
4319.99796 8.10940e-18
4320.99786 8.10890e-18
4321.99776 7.22363e-18
4322.99766 7.94077e-18
4323.99756 8.10740e-18
4324.99746 8.11459e-18
4325.99736 8.11409e-18
4326.99726 9.15067e-18
4327.99716 9.15011e-18
4328.99706 8.32677e-18
4329.99696 8.32625e-18
4330.99686 8.11972e-18
4331.99676 8.11107e-18
4332.99666 8.11057e-18
4333.99656 7.93536e-18
4334.99646 7.93486e-18
4335.99636 9.14556e-18
4336.99626 1.02431e-17
4337.99616 9.14442e-18
4338.99606 1.02418e-17
4339.99596 1.02412e-17
4340.99586 9.43866e-18
4341.99576 1.02399e-17
4342.99566 9.43748e-18
4343.99556 1.02386e-17
4344.99546 1.05121e-17
4345.99536 1.07652e-17
4347.00526 1.07646e-17
4348.00516 1.02361e-17
4349.00506 1.02354e-17
4350.00496 9.43334e-18
4351.00486 1.08569e-17
4352.00476 1.08562e-17
4353.00466 1.08556e-17
4354.00456 1.11768e-17
4355.00446 1.11761e-17
4356.00436 1.11754e-17
4357.00426 1.08528e-17
4358.00416 9.68974e-18
4359.00406 9.42188e-18
4360.00396 9.03611e-18
4361.00386 9.01893e-18
4362.00376 8.55772e-18
4363.00366 8.31850e-18
4364.00356 8.55664e-18
4365.00346 7.28109e-18
4366.00336 8.31692e-18
4367.00326 8.00181e-18
4368.00316 7.67934e-18
4369.00306 7.27925e-18
4370.00296 7.27878e-18
4371.00286 7.27832e-18
4372.00276 7.15684e-18
4373.00266 7.07652e-18
4374.00256 5.99381e-18
4375.00246 5.99343e-18
4376.00236 5.99305e-18
4377.00226 4.98695e-18
4378.00216 4.57774e-18
4379.00206 4.98631e-18
4380.00196 4.98599e-18
4381.00186 5.78076e-18
4382.00176 5.78039e-18
4383.00166 4.98504e-18
4384.00156 4.98472e-18
4385.00146 4.98441e-18
4386.00136 4.98409e-18
4387.00126 4.42043e-18
4388.00116 4.42014e-18
4389.00106 4.92616e-18
4390.00096 4.98281e-18
4391.00086 4.41929e-18
4392.00076 4.26796e-18
4393.00066 4.41873e-18
4394.00056 4.52631e-18
4395.00046 4.53445e-18
4396.00036 4.52573e-18
4397.00026 3.89321e-18
4398.00016 4.33592e-18
4399.00006 4.52486e-18
4399.99996 4.52457e-18
4400.99986 4.33508e-18
4401.99976 4.33480e-18
4402.99966 4.52369e-18
4403.99956 4.53182e-18
4404.99946 5.17970e-18
4405.99936 4.53124e-18
4406.99926 5.17903e-18
4407.99916 5.43869e-18
4408.99906 5.87695e-18
4409.99896 5.80722e-18
4410.99886 5.80684e-18
4411.99876 5.80647e-18
4412.99866 5.87542e-18
4413.99856 5.80572e-18
4414.99846 5.80534e-18
4415.99836 5.43587e-18
4416.99826 5.25841e-18
4417.99816 5.25807e-18
4418.99806 5.17500e-18
4419.99796 5.17467e-18
4420.99786 5.17433e-18
4421.99776 5.25670e-18
4422.99766 5.13234e-18
4423.99756 5.25601e-18
4424.99746 5.13167e-18
4425.99736 5.25533e-18
4426.99726 6.04820e-18
4427.99716 6.29447e-18
4428.99706 6.29406e-18
4429.99696 6.63947e-18
4430.99686 6.79922e-18
4431.99676 7.31529e-18
4432.99666 7.31481e-18
4433.99656 7.31433e-18
4434.99646 7.45812e-18
4435.99636 7.45763e-18
4436.99626 7.45714e-18
4437.99616 7.47673e-18
4438.99606 7.47624e-18
4439.99596 7.31489e-18
4440.99586 7.47526e-18
4441.99576 7.47477e-18
4442.99566 7.47428e-18
4443.99556 7.47378e-18
4444.99546 7.47329e-18
4445.99536 7.31201e-18
4446.99526 7.31152e-18
4447.99516 7.47182e-18
4448.99506 7.59773e-18
4450.00495 7.59723e-18
4451.00486 7.59673e-18
4452.00475 7.61506e-18
4453.00465 8.42627e-18
4454.00455 8.49925e-18
4455.00446 8.49869e-18
4456.00436 8.67078e-18
4457.00425 8.78158e-18
4458.00415 8.66963e-18
4459.00405 8.49644e-18
4460.00396 8.42237e-18
4461.00385 8.45942e-18
4462.00375 8.45886e-18
4463.00365 8.45830e-18
4464.00356 8.42013e-18
4465.00346 8.41957e-18
4466.00335 8.45661e-18
4467.00325 8.54457e-18
4468.00315 8.66387e-18
4469.00306 8.66330e-18
4470.00295 8.66272e-18
4471.00285 8.71344e-18
4472.00275 8.54173e-18
4473.00266 8.41176e-18
4474.00256 8.41120e-18
4475.00245 7.83201e-18
4476.00235 7.77803e-18
4477.00225 7.83096e-18
4478.00216 7.83044e-18
4479.00205 8.40839e-18
4480.00195 7.83369e-18
4481.00185 7.83317e-18
4482.00176 7.83264e-18
4483.00166 7.83212e-18
4484.00155 7.83159e-18
4485.00145 7.78236e-18
4486.00135 7.78184e-18
4487.00126 7.78132e-18
4488.00115 7.78079e-18
4489.00105 7.82896e-18
4490.00095 7.77975e-18
4491.00086 7.82791e-18
4492.00076 7.77870e-18
4493.00065 7.77818e-18
4494.00055 7.77766e-18
4495.00045 7.77713e-18
4496.00036 7.77661e-18
4497.00025 7.06808e-18
4498.00015 7.41837e-18
4499.00005 7.41787e-18
4499.99996 7.41736e-18
4500.99986 7.41686e-18
4501.99975 7.06569e-18
4502.99965 7.06522e-18
4503.99955 7.41536e-18
4504.99946 7.55009e-18
4505.99935 7.82775e-18
4506.99925 8.28327e-18
4507.99915 7.82669e-18
4508.99906 7.82616e-18
4509.99896 7.82563e-18
4510.99885 7.54702e-18
4511.99875 7.41134e-18
4512.99865 7.41084e-18
4513.99856 7.41034e-18
4514.99845 7.54497e-18
4515.99835 8.57910e-18
4516.99825 8.57852e-18
4517.99816 8.57794e-18
4518.99806 8.57735e-18
4519.99795 8.57677e-18
4520.99785 8.30920e-18
4521.99775 8.30863e-18
4522.99766 8.30806e-18
4523.99755 8.30750e-18
4524.99745 9.39779e-18
4525.99735 9.39715e-18
4526.99726 9.39651e-18
4527.99716 9.39587e-18
4528.99705 9.75055e-18
4529.99695 9.74988e-18
4530.99685 9.96254e-18
4531.99676 1.02518e-17
4532.99665 1.02511e-17
4533.99655 1.05516e-17
4534.99645 1.10399e-17
4535.99636 1.11455e-17
4536.99626 1.12236e-17
4537.99615 1.12229e-17
4538.99605 1.14633e-17
4539.99596 1.13281e-17
4540.99586 1.13273e-17
4541.99575 1.13265e-17
4542.99565 1.13258e-17
4543.99555 1.14594e-17
4544.99546 1.18852e-17
4545.99536 1.19821e-17
4546.99525 1.22045e-17
4548.00515 1.22069e-17
4549.00505 1.22029e-17
4550.00495 1.21507e-17
4551.00485 1.19780e-17
4552.00475 1.14968e-17
4553.00465 1.14960e-17
4554.00455 1.14952e-17
4555.00445 1.14944e-17
4556.00435 1.15102e-17
4557.00425 1.21448e-17
4558.00415 1.24039e-17
4559.00405 1.24541e-17
4560.00395 1.27939e-17
4561.00385 1.29560e-17
4562.00375 1.24788e-17
4563.00365 1.31384e-17
4564.00355 1.31375e-17
4565.00345 1.31366e-17
4566.00335 1.34478e-17
4567.00325 1.34469e-17
4568.00315 1.34524e-17
4569.00305 1.35422e-17
4570.00295 1.39199e-17
4571.00285 1.39190e-17
4572.00275 1.38190e-17
4573.00265 1.36815e-17
4574.00255 1.38171e-17
4575.00245 1.38161e-17
4576.00235 1.38151e-17
4577.00225 1.36669e-17
4578.00215 1.36660e-17
4579.00205 1.36758e-17
4580.00195 1.36641e-17
4581.00185 1.36631e-17
4582.00175 1.36730e-17
4583.00165 1.36612e-17
4584.00155 1.36603e-17
4585.00145 1.34431e-17
4586.00135 1.30949e-17
4587.00125 1.30939e-17
4588.00115 1.33700e-17
4589.00105 1.30921e-17
4590.00095 1.30912e-17
4591.00085 1.33217e-17
4592.00075 1.33207e-17
4593.00065 1.33198e-17
4594.00055 1.33644e-17
4595.00045 1.30866e-17
4596.00035 1.24626e-17
4597.00025 1.31864e-17
4598.00015 1.30839e-17
4599.00005 1.30830e-17
4599.99995 1.31836e-17
4600.99985 1.36008e-17
4601.99975 1.35998e-17
4602.99965 1.39934e-17
4603.99955 1.40559e-17
4604.99945 1.42250e-17
4605.99935 1.40539e-17
4606.99925 1.40529e-17
4607.99915 1.35941e-17
4608.99905 1.31753e-17
4609.99895 1.31743e-17
4610.99885 1.29185e-17
4611.99875 1.29176e-17
4612.99865 1.29166e-17
4613.99855 1.29157e-17
4614.99845 1.25264e-17
4615.99835 1.24999e-17
4616.99825 1.24855e-17
4617.99815 1.22293e-17
4618.99805 1.21835e-17
4619.99795 1.19116e-17
4620.99785 1.16806e-17
4621.99775 1.13156e-17
4622.99765 1.13875e-17
4623.99755 1.13140e-17
4624.99745 1.09491e-17
4625.99735 1.09646e-17
4626.99725 1.09476e-17
4627.99715 1.08428e-17
4628.99705 1.06974e-17
4629.99695 1.07391e-17
4630.99685 1.06959e-17
4631.99675 1.08397e-17
4632.99665 1.07368e-17
4633.99655 1.04251e-17
4634.99645 1.06929e-17
4635.99635 1.06921e-17
4636.99625 1.04778e-17
4637.99615 1.00886e-17
4638.99605 1.01115e-17
4639.99595 1.01108e-17
4640.99585 1.01496e-17
4641.99575 1.01489e-17
4642.99565 1.01482e-17
4643.99555 1.01474e-17
4644.99545 1.04378e-17
4645.99535 1.05894e-17
4646.99525 1.05887e-17
4647.99515 1.05879e-17
4648.99505 1.05872e-17
4650.00495 1.04682e-17
4651.00485 1.05857e-17
4652.00475 1.07261e-17
4653.00465 1.10541e-17
4654.00455 1.10533e-17
4655.00445 1.12612e-17
4656.00435 1.12604e-17
4657.00425 1.13409e-17
4658.00415 1.13401e-17
4659.00405 1.13384e-17
4660.00395 1.13070e-17
4661.00385 1.12564e-17
4662.00375 1.13054e-17
4663.00365 1.12239e-17
4664.00355 1.10613e-17
4665.00345 1.10447e-17
4666.00335 1.09549e-17
4667.00325 1.09541e-17
4668.00315 1.09533e-17
4669.00305 1.06798e-17
4670.00295 1.06337e-17
4671.00285 1.01612e-17
4672.00275 1.01605e-17
4673.00265 9.34777e-18
4674.00255 9.76065e-18
4675.00245 9.75995e-18
4676.00235 9.75925e-18
4677.00225 9.34510e-18
4678.00215 9.75786e-18
4679.00205 9.75716e-18
4680.00195 9.75646e-18
4681.00185 1.03594e-17
4682.00175 9.37362e-18
4683.00165 9.37295e-18
4684.00155 9.37228e-18
4685.00145 9.39118e-18
4686.00135 9.37094e-18
4687.00125 9.38983e-18
4688.00115 9.96983e-18
4689.00105 1.01310e-17
4690.00095 1.03784e-17
4691.00085 1.03520e-17
4692.00075 1.01288e-17
4693.00065 9.96626e-18
4694.00055 9.54816e-18
4695.00045 9.36490e-18
4696.00035 9.13571e-18
4697.00025 9.02565e-18
4698.00015 8.90850e-18
4699.00005 8.73117e-18
4699.99995 8.01017e-18
4700.99985 8.00960e-18
4701.99975 7.17845e-18
4702.99965 7.17793e-18
4703.99955 7.01239e-18
4704.99945 6.82421e-18
4705.99935 6.63759e-18
4706.99925 6.25265e-18
4707.99915 6.07358e-18
4708.99905 5.80793e-18
4709.99895 5.80751e-18
4710.99885 5.43735e-18
4711.99875 5.33639e-18
4712.99865 5.33600e-18
4713.99855 5.33562e-18
4714.99845 5.22103e-18
4715.99835 5.22065e-18
4716.99825 4.68862e-18
4717.99815 4.32741e-18
4718.99805 4.15048e-18
4719.99795 4.12895e-18
4720.99785 4.12866e-18
4721.99775 3.65204e-18
4722.99765 3.36868e-18
4723.99755 3.39559e-18
4724.99745 3.39534e-18
4725.99735 3.39510e-18
4726.99725 3.39485e-18
4727.99715 3.39461e-18
4728.99705 3.39436e-18
4729.99695 3.39412e-18
4730.99685 4.12568e-18
4731.99675 3.36650e-18
4732.99665 4.65930e-18
4733.99655 4.73597e-18
4734.99645 4.93074e-18
4735.99635 5.58392e-18
4736.99625 5.90568e-18
4737.99615 5.97852e-18
4738.99605 6.28841e-18
4739.99595 6.12757e-18
4740.99585 6.18751e-18
4741.99575 6.18706e-18
4742.99565 6.28659e-18
4743.99555 6.28614e-18
4744.99545 6.28568e-18
4745.99535 6.54831e-18
4746.99525 6.54784e-18
4748.00515 6.84576e-18
4749.00505 6.98939e-18
4750.00495 6.84478e-18
4751.00485 6.98838e-18
4752.00475 7.25931e-18
4753.00465 8.35902e-18
4754.00455 8.67919e-18
4755.00445 8.67856e-18
4756.00435 8.76819e-18
4757.00425 8.78009e-18
4758.00415 8.77946e-18
4759.00405 8.77882e-18
4760.00395 8.99374e-18
4761.00385 9.27143e-18
4762.00375 8.90449e-18
4763.00365 8.90384e-18
4764.00355 8.90320e-18
4765.00345 8.90256e-18
4766.00335 9.45072e-18
4767.00325 9.45004e-18
4768.00315 9.38800e-18
4769.00305 9.38732e-18
4770.00295 9.38664e-18
4771.00285 9.15405e-18
4772.00275 9.15339e-18
4773.00265 9.25082e-18
4774.00255 9.15206e-18
4775.00245 9.24948e-18
4776.00235 9.24881e-18
4777.00225 9.24814e-18
4778.00215 9.44252e-18
4779.00205 9.55927e-18
4780.00195 9.24613e-18
4781.00185 9.55789e-18
4782.00175 9.55720e-18
4783.00165 9.55651e-18
4784.00155 9.55822e-18
4785.00145 9.55753e-18
4786.00135 9.75939e-18
4787.00125 1.03520e-17
4788.00115 1.03958e-17
4789.00105 1.03951e-17
4790.00095 1.03943e-17
4791.00085 1.03936e-17
4792.00075 1.03122e-17
4793.00065 1.03921e-17
4794.00055 1.01281e-17
4795.00045 1.01273e-17
4796.00035 1.03092e-17
4797.00025 1.04544e-17
4798.00015 1.04536e-17
4799.00005 1.03070e-17
4799.99995 1.04521e-17
4800.99985 1.04513e-17
4801.99975 1.07053e-17
4802.99965 1.03040e-17
4803.99955 1.03032e-17
4804.99945 1.02196e-17
4805.99935 1.03017e-17
4806.99925 1.07454e-17
4807.99915 1.07446e-17
4808.99905 1.07472e-17
4809.99895 1.09684e-17
4810.99885 1.10330e-17
4811.99875 1.11283e-17
4812.99865 1.10314e-17
4813.99855 1.09653e-17
4814.99845 1.09645e-17
4815.99835 1.09637e-17
4816.99825 1.07410e-17
4817.99815 1.06256e-17
4818.99805 1.04915e-17
4819.99795 1.04907e-17
4820.99785 1.02505e-17
4821.99775 1.02497e-17
4822.99765 1.02490e-17
4823.99755 1.02483e-17
4824.99745 9.53951e-18
4825.99735 9.35674e-18
4826.99725 8.96336e-18
4827.99715 9.35538e-18
4828.99705 9.35470e-18
4829.99695 9.35402e-18
4830.99685 8.96076e-18
4831.99675 8.89892e-18
4832.99665 9.35199e-18
4833.99655 8.89763e-18
4834.99645 8.73644e-18
4835.99635 8.71662e-18
4836.99625 8.73518e-18
4837.99615 8.83451e-18
4838.99605 8.89441e-18
4839.99595 9.30479e-18
4840.99585 9.30412e-18
4841.99575 9.52843e-18
4842.99565 9.52774e-18
4843.99555 9.52705e-18
4844.99545 8.79687e-18
4845.99535 8.79624e-18
4846.99525 8.70968e-18
4847.99515 8.70905e-18
4848.99505 8.79432e-18
4850.00495 8.93945e-18
4851.00485 9.25167e-18
4852.00475 9.25426e-18
4853.00465 9.29604e-18
4854.00455 9.65380e-18
4855.00445 9.65310e-18
4856.00435 9.65240e-18
4857.00425 9.24765e-18
4858.00415 9.25025e-18
4859.00405 9.24632e-18
4860.00395 9.24891e-18
4861.00385 9.70287e-18
4862.00375 9.75631e-18
4863.00365 9.76026e-18
4864.00355 9.77299e-18
4865.00345 1.02287e-17
4866.00335 1.03385e-17
4867.00325 1.03378e-17
4868.00315 1.05427e-17
4869.00305 1.06156e-17
4870.00295 1.11187e-17
4871.00285 1.11860e-17
4872.00275 1.15280e-17
4873.00265 1.16257e-17
4874.00255 1.15263e-17
4875.00245 1.16240e-17
4876.00235 1.15246e-17
4877.00225 1.11163e-17
4878.00215 1.11123e-17
4879.00205 1.11115e-17
4880.00195 1.11107e-17
4881.00185 1.06063e-17
4882.00175 1.06056e-17
4883.00165 1.11115e-17
4884.00155 1.11755e-17
4885.00145 1.17859e-17
4886.00135 1.17320e-17
4887.00125 1.16781e-17
4888.00115 1.16242e-17
4889.00105 1.15704e-17
4890.00095 1.11059e-17
4891.00085 1.14626e-17
4892.00075 1.14618e-17
4893.00065 1.14610e-17
4894.00055 1.14602e-17
4895.00045 1.14593e-17
4896.00035 1.14585e-17
4897.00025 1.14577e-17
4898.00015 1.14569e-17
4899.00005 1.14030e-17
4899.99995 1.14552e-17
4900.99985 1.14014e-17
4901.99975 1.13476e-17
4902.99965 1.12938e-17
4903.99955 1.12400e-17
4904.99945 1.11862e-17
4905.99935 1.11324e-17
4906.99925 1.11026e-17
4907.99915 1.04047e-17
4908.99905 1.00339e-17
4909.99895 9.21021e-18
4910.99885 9.20954e-18
4911.99875 9.00362e-18
4912.99865 8.79233e-18
4913.99855 8.53608e-18
4914.99845 8.53546e-18
4915.99835 8.53485e-18
4916.99825 8.47116e-18
4917.99815 8.32161e-18
4918.99805 8.28312e-18
4919.99795 7.97097e-18
4920.99785 8.28193e-18
4921.99775 7.96982e-18
4922.99765 7.84859e-18
4923.99755 7.84803e-18
4924.99745 7.84747e-18
4925.99735 7.84690e-18
4926.99725 8.27836e-18
4927.99715 8.27776e-18
4928.99705 8.27717e-18
4929.99695 8.31443e-18
4930.99685 8.31384e-18
4931.99675 8.27538e-18
4932.99665 8.27479e-18
4933.99655 8.36960e-18
4934.99645 8.36900e-18
4935.99635 8.50195e-18
4936.99625 8.58889e-18
4937.99615 8.62181e-18
4938.99605 8.62490e-18
4939.99595 8.81136e-18
4940.99585 8.81073e-18
4941.99575 9.11543e-18
4942.99565 9.17062e-18
4943.99555 9.40111e-18
4944.99545 9.94792e-18
4945.99535 9.97332e-18
4946.99525 1.00229e-17
4948.00515 1.05727e-17
4949.00505 1.06900e-17
4950.00495 1.11800e-17
4951.00485 1.11811e-17
4952.00475 1.11959e-17
4953.00465 1.11951e-17
4954.00455 1.18405e-17
4955.00445 1.18397e-17
4956.00435 1.19244e-17
4957.00425 1.19235e-17
4958.00415 1.22105e-17
4959.00405 1.22097e-17
4960.00395 1.23126e-17
4961.00385 1.23117e-17
4962.00375 1.23906e-17
4963.00365 1.26624e-17
4964.00355 1.31419e-17
4965.00345 1.31410e-17
4966.00335 1.33643e-17
4967.00325 1.33633e-17
4968.00315 1.37354e-17
4969.00305 1.41421e-17
4970.00295 1.41411e-17
4971.00285 1.41281e-17
4972.00275 1.39512e-17
4973.00265 1.39502e-17
4974.00255 1.39492e-17
4975.00245 1.39482e-17
4976.00235 1.41351e-17
4977.00225 1.41341e-17
4978.00215 1.42188e-17
4979.00205 1.42178e-17
4980.00195 1.43871e-17
4981.00185 1.43861e-17
4982.00175 1.48021e-17
4983.00165 1.45117e-17
4984.00155 1.48000e-17
4985.00145 1.47990e-17
4986.00135 1.47979e-17
4987.00125 1.50317e-17
4988.00115 1.53468e-17
4989.00105 1.53467e-17
4990.00095 1.62651e-17
4991.00085 1.65253e-17
4992.00075 1.71353e-17
4993.00065 1.71781e-17
4994.00055 1.71329e-17
4995.00045 1.71757e-17
4996.00035 1.74220e-17
4997.00025 1.75145e-17
4998.00015 1.82253e-17
4999.00005 1.77450e-17
4999.99995 1.77437e-17
5000.99985 1.82214e-17
5001.99975 1.82202e-17
5002.99965 1.75070e-17
5003.99955 1.71647e-17
5004.99945 1.66138e-17
5005.99935 1.62242e-17
5006.99925 1.49372e-17
5007.99915 1.49361e-17
5008.99905 1.48339e-17
5009.99895 1.45390e-17
5010.99885 1.41622e-17
5011.99875 1.45370e-17
5012.99865 1.45359e-17
5013.99855 1.45349e-17
5014.99845 1.40470e-17
5015.99835 1.40460e-17
5016.99825 1.39996e-17
5017.99815 1.36730e-17
5018.99805 1.36721e-17
5019.99795 1.35712e-17
5020.99785 1.34394e-17
5021.99775 1.33599e-17
5022.99765 1.33589e-17
5023.99755 1.33580e-17
5024.99745 1.32559e-17
5025.99735 1.28466e-17
5026.99725 1.28457e-17
5027.99715 1.28448e-17
5028.99705 1.28439e-17
5029.99695 1.28430e-17
5030.99685 1.25909e-17
5031.99675 1.21289e-17
5032.99665 1.25891e-17
5033.99655 1.28015e-17
5034.99645 1.26911e-17
5035.99635 1.26902e-17
5036.99625 1.27988e-17
5037.99615 1.28358e-17
5038.99605 1.32497e-17
5039.99595 1.32488e-17
5040.99585 1.32555e-17
5041.99575 1.32545e-17
5042.99565 1.32536e-17
5043.99555 1.32451e-17
5044.99545 1.31048e-17
5045.99535 1.30918e-17
5046.99525 1.29835e-17
5047.99515 1.29826e-17
5048.99505 1.29817e-17
5050.00495 1.29370e-17
5051.00485 1.29799e-17
5052.00475 1.29352e-17
5053.00465 1.25866e-17
5054.00455 1.25858e-17
5055.00445 1.24682e-17
5056.00435 1.22709e-17
5057.00425 1.22700e-17
5058.00415 1.18804e-17
5059.00405 1.17316e-17
5060.00395 1.16924e-17
5061.00385 1.15915e-17
5062.00375 1.12973e-17
5063.00365 1.11823e-17
5064.00355 1.11815e-17
5065.00345 1.01092e-17
5066.00335 9.33356e-18
5067.00325 7.92310e-18
5068.00315 9.16688e-18
5069.00305 8.40642e-18
5070.00295 7.92145e-18
5071.00285 7.78506e-18
5072.00275 7.78452e-18
5073.00265 7.78398e-18
5074.00255 7.78344e-18
5075.00245 7.78290e-18
5076.00235 7.73852e-18
5077.00225 7.73799e-18
5078.00215 8.22880e-18
5079.00205 8.40059e-18
5080.00195 8.48799e-18
5081.00185 8.48741e-18
5082.00175 8.48682e-18
5083.00165 8.48623e-18
5084.00155 8.48565e-18
5085.00145 8.48506e-18
5086.00135 8.48447e-18
5087.00125 8.48389e-18
5088.00115 8.63429e-18
5089.00105 8.63370e-18
5090.00095 8.63310e-18
5091.00085 8.48155e-18
5092.00075 8.48097e-18
5093.00065 8.45012e-18
5094.00055 8.47980e-18
5095.00045 8.47922e-18
5096.00035 8.47863e-18
5097.00025 8.44780e-18
5098.00015 8.69520e-18
5099.00005 8.74171e-18
5099.99995 9.25071e-18
5100.99985 9.42335e-18
5101.99975 9.24944e-18
5102.99965 1.02221e-17
5103.99955 1.04961e-17
5104.99945 1.06684e-17
5105.99935 1.08715e-17
5106.99925 1.12027e-17
5107.99915 1.12019e-17
5108.99905 1.14854e-17
5109.99895 1.15364e-17
5110.99885 1.19801e-17
5111.99875 1.21183e-17
5112.99865 1.21175e-17
5113.99855 1.24778e-17
5114.99845 1.25484e-17
5115.99835 1.26767e-17
5116.99825 1.29328e-17
5117.99815 1.30453e-17
5118.99805 1.29310e-17
5119.99795 1.29301e-17
5120.99785 1.30427e-17
5121.99775 1.30547e-17
5122.99765 1.30538e-17
5123.99755 1.31366e-17
5124.99745 1.31357e-17
5125.99735 1.35492e-17
5126.99725 1.36005e-17
5127.99715 1.37030e-17
5128.99705 1.37021e-17
5129.99695 1.35212e-17
5130.99685 1.35203e-17
5131.99675 1.35194e-17
5132.99665 1.35184e-17
5133.99655 1.33950e-17
5134.99645 1.33941e-17
5135.99635 1.33932e-17
5136.99625 1.33923e-17
5137.99615 1.33914e-17
5138.99605 1.33877e-17
5139.99595 1.33752e-17
5140.99585 1.33859e-17
5141.99575 1.34902e-17
5142.99565 1.34893e-17
5143.99555 1.34884e-17
5144.99545 1.34875e-17
5145.99535 1.34866e-17
5146.99525 1.34857e-17
5148.00515 1.34848e-17
5149.00505 1.34839e-17
5150.00495 1.35289e-17
5151.00485 1.35379e-17
5152.00475 1.37707e-17
5153.00465 1.37767e-17
5154.00455 1.39325e-17
5155.00445 1.40067e-17
5156.00435 1.40058e-17
5157.00425 1.40096e-17
5158.00415 1.40039e-17
5159.00405 1.40077e-17
5160.00395 1.40067e-17
5161.00385 1.40058e-17
5162.00375 1.40001e-17
5163.00365 1.39992e-17
5164.00355 1.41076e-17
5165.00345 1.41067e-17
5166.00335 1.41057e-17
5167.00325 1.40002e-17
5168.00315 1.38435e-17
5169.00305 1.34811e-17
5170.00295 1.34802e-17
5171.00285 1.34476e-17
5172.00275 1.33916e-17
5173.00265 1.34775e-17
5174.00255 1.34766e-17
5175.00245 1.34757e-17
5176.00235 1.34748e-17
5177.00225 1.34422e-17
5178.00215 1.34730e-17
5179.00205 1.36508e-17
5180.00195 1.36499e-17
5181.00185 1.36490e-17
5182.00175 1.36481e-17
5183.00165 1.36472e-17
5184.00155 1.37163e-17
5185.00145 1.39117e-17
5186.00135 1.39620e-17
5187.00125 1.39098e-17
5188.00115 1.39089e-17
5189.00105 1.39592e-17
5190.00095 1.41405e-17
5191.00085 1.41395e-17
5192.00075 1.41386e-17
5193.00065 1.39555e-17
5194.00055 1.39034e-17
5195.00045 1.39537e-17
5196.00035 1.39528e-17
5197.00025 1.39006e-17
5198.00015 1.38997e-17
5199.00005 1.38988e-17
5199.99995 1.38979e-17
5200.99985 1.38970e-17
5201.99975 1.32930e-17
5202.99965 1.36583e-17
5203.99955 1.37541e-17
5204.99945 1.37532e-17
5205.99935 1.37322e-17
5206.99925 1.37313e-17
5207.99915 1.36538e-17
5208.99905 1.36529e-17
5209.99895 1.37286e-17
5210.99885 1.37277e-17
5211.99875 1.34085e-17
5212.99865 1.33823e-17
5213.99855 1.33445e-17
5214.99845 1.33436e-17
5215.99835 1.32632e-17
5216.99825 1.33419e-17
5217.99815 1.33779e-17
5218.99805 1.33770e-17
5219.99795 1.34015e-17
5220.99785 1.33753e-17
5221.99775 1.33744e-17
5222.99765 1.33988e-17
5223.99755 1.33980e-17
5224.99745 1.32554e-17
5225.99735 1.32325e-17
5226.99725 1.32317e-17
5227.99715 1.31421e-17
5228.99705 1.29173e-17
5229.99695 1.29165e-17
5230.99685 1.29156e-17
5231.99675 1.30738e-17
5232.99665 1.30730e-17
5233.99655 1.30721e-17
5234.99645 1.30713e-17
5235.99635 1.30251e-17
5236.99625 1.30243e-17
5237.99615 1.29097e-17
5238.99605 1.30226e-17
5239.99595 1.29081e-17
5240.99585 1.29072e-17
5241.99575 1.29064e-17
5242.99565 1.29056e-17
5243.99555 1.30184e-17
5244.99545 1.29039e-17
5245.99535 1.28434e-17
5246.99525 1.28426e-17
5247.99515 1.30140e-17
5248.99505 1.31223e-17
5249.99495 1.31214e-17
5251.00485 1.31206e-17
5252.00475 1.36438e-17
5253.00465 1.36430e-17
5254.00455 1.31543e-17
5255.00445 1.31535e-17
5256.00435 1.31163e-17
5257.00425 1.31154e-17
5258.00415 1.31146e-17
5259.00405 1.31137e-17
5260.00395 1.31493e-17
5261.00385 1.38231e-17
5262.00375 1.38222e-17
5263.00365 1.37398e-17
5264.00355 1.38204e-17
5265.00345 1.37593e-17
5266.00335 1.39601e-17
5267.00325 1.39592e-17
5268.00315 1.38169e-17
5269.00305 1.38160e-17
5270.00295 1.39570e-17
5271.00285 1.40560e-17
5272.00275 1.39552e-17
5273.00265 1.39539e-17
5274.00255 1.39082e-17
5275.00245 1.39521e-17
5276.00235 1.39517e-17
5277.00225 1.39508e-17
5278.00215 1.45072e-17
5279.00205 1.49213e-17
5280.00195 1.49204e-17
5281.00185 1.49194e-17
5282.00175 1.49185e-17
5283.00165 1.45026e-17
5284.00155 1.44481e-17
5285.00145 1.44472e-17
5286.00135 1.43700e-17
5287.00125 1.43690e-17
5288.00115 1.42941e-17
5289.00105 1.43672e-17
5290.00095 1.46331e-17
5291.00085 1.49100e-17
5292.00075 1.51419e-17
5293.00065 1.46303e-17
5294.00055 1.46294e-17
5295.00045 1.46285e-17
5296.00035 1.46276e-17
5297.00025 1.46267e-17
5298.00015 1.51362e-17
5299.00005 1.53684e-17
5299.99995 1.55489e-17
5300.99985 1.65318e-17
5301.99975 1.65308e-17
5302.99965 1.65297e-17
5303.99955 1.65287e-17
5304.99945 1.66724e-17
5305.99935 1.65266e-17
5306.99925 1.64630e-17
5307.99915 1.65246e-17
5308.99905 1.68293e-17
5309.99895 1.70583e-17
5310.99885 1.70572e-17
5311.99875 1.68261e-17
5312.99865 1.65194e-17
5313.99855 1.65184e-17
5314.99845 1.61254e-17
5315.99835 1.61244e-17
5316.99825 1.61234e-17
5317.99815 1.61224e-17
5318.99805 1.62788e-17
5319.99795 1.62778e-17
5320.99785 1.61194e-17
5321.99775 1.60931e-17
5322.99765 1.58896e-17
5323.99755 1.56588e-17
5324.99745 1.56463e-17
5325.99735 1.54977e-17
5326.99725 1.54423e-17
5327.99715 1.54413e-17
5328.99705 1.53743e-17
5329.99695 1.54118e-17
5330.99685 1.54109e-17
5331.99675 1.51055e-17
5332.99665 1.51046e-17
5333.99655 1.51037e-17
5334.99645 1.53338e-17
5335.99635 1.51018e-17
5336.99625 1.50575e-17
5337.99615 1.48383e-17
5338.99605 1.46499e-17
5339.99595 1.48365e-17
5340.99585 1.44918e-17
5341.99575 1.44909e-17
5342.99565 1.44900e-17
5343.99555 1.44891e-17
5344.99545 1.52737e-17
5345.99535 1.52728e-17
5346.99525 1.52718e-17
5348.00515 1.50474e-17
5349.00505 1.50465e-17
5350.00495 1.49876e-17
5351.00485 1.49575e-17
5352.00475 1.49566e-17
5353.00465 1.49557e-17
5354.00455 1.52653e-17
5355.00445 1.56635e-17
5356.00435 1.59673e-17
5357.00425 1.66589e-17
5358.00415 1.66579e-17
5359.00405 1.66569e-17
5360.00395 1.66558e-17
5361.00385 1.59304e-17
5362.00375 1.56602e-17
5363.00365 1.59284e-17
5364.00355 1.65225e-17
5365.00345 1.67494e-17
5366.00335 1.66498e-17
5367.00325 1.66488e-17
5368.00315 1.66478e-17
5369.00305 1.67453e-17
5370.00295 1.66458e-17
5371.00285 1.65156e-17
5372.00275 1.65146e-17
5373.00265 1.65136e-17
5374.00255 1.63805e-17
5375.00245 1.65116e-17
5376.00235 1.65106e-17
5377.00225 1.65096e-17
5378.00215 1.65102e-17
5379.00205 1.65092e-17
5380.00195 1.63746e-17
5381.00185 1.63328e-17
5382.00175 1.61831e-17
5383.00165 1.61125e-17
5384.00155 1.52959e-17
5385.00145 1.52950e-17
5386.00135 1.52941e-17
5387.00125 1.61782e-17
5388.00115 1.63259e-17
5389.00105 1.63250e-17
5390.00095 1.63240e-17
5391.00085 1.61048e-17
5392.00075 1.61038e-17
5393.00065 1.61029e-17
5394.00055 1.58137e-17
5395.00045 1.58004e-17
5396.00035 1.57994e-17
5397.00025 1.58108e-17
5398.00015 1.58099e-17
5399.00005 1.60623e-17
5399.99995 1.58080e-17
5400.99985 1.60604e-17
5401.99975 1.64858e-17
5402.99965 1.62385e-17
5403.99955 1.60575e-17
5404.99945 1.58034e-17
5405.99935 1.60556e-17
5406.99925 1.60547e-17
5407.99915 1.60537e-17
5408.99905 1.55577e-17
5409.99895 1.55568e-17
5410.99885 1.55841e-17
5411.99875 1.55832e-17
5412.99865 1.55823e-17
5413.99855 1.55531e-17
5414.99845 1.55804e-17
5415.99835 1.62359e-17
5416.99825 1.62349e-17
5417.99815 1.62340e-17
5418.99805 1.62041e-17
5419.99795 1.62032e-17
5420.99785 1.62070e-17
5421.99775 1.62302e-17
5422.99765 1.62052e-17
5423.99755 1.61994e-17
5424.99745 1.62033e-17
5425.99735 1.61975e-17
5426.99725 1.62715e-17
5427.99715 1.62705e-17
5428.99705 1.61947e-17
5429.99695 1.58352e-17
5430.99685 1.56146e-17
5431.99675 1.56137e-17
5432.99665 1.55906e-17
5433.99655 1.55897e-17
5434.99645 1.55284e-17
5435.99635 1.55879e-17
5436.99625 1.58288e-17
5437.99615 1.58278e-17
5438.99605 1.58269e-17
5439.99595 1.62287e-17
5440.99585 1.62278e-17
5441.99575 1.56047e-17
5442.99565 1.56038e-17
5443.99555 1.55807e-17
5444.99545 1.51796e-17
5445.99535 1.51788e-17
5446.99525 1.51779e-17
5447.99515 1.62212e-17
5448.99505 1.64079e-17
5449.99495 1.65171e-17
5451.00485 1.65466e-17
5452.00475 1.65456e-17
5453.00464 1.65447e-17
5454.00455 1.65437e-17
5455.00445 1.65124e-17
5456.00435 1.68224e-17
5457.00425 1.68214e-17
5458.00414 1.68638e-17
5459.00405 1.68705e-17
5460.00395 1.68772e-17
5461.00385 1.68839e-17
5462.00374 1.68906e-17
5463.00365 1.68973e-17
5464.00355 1.69040e-17
5465.00345 1.69107e-17
5466.00335 1.69174e-17
5467.00324 1.69241e-17
5468.00315 1.69308e-17
5469.00305 1.69375e-17
5470.00295 1.69442e-17
5471.00284 1.69509e-17
5472.00275 1.69576e-17
5473.00265 1.69413e-17
5474.00255 1.69403e-17
5475.00245 1.69394e-17
5476.00234 1.69384e-17
5477.00225 1.69375e-17
5478.00215 1.69365e-17
5479.00205 1.68910e-17
5480.00194 1.67667e-17
5481.00185 1.67658e-17
5482.00175 1.67438e-17
5483.00165 1.67428e-17
5484.00155 1.67419e-17
5485.00144 1.67409e-17
5486.00135 1.67005e-17
5487.00125 1.67391e-17
5488.00115 1.67381e-17
5489.00104 1.67372e-17
5490.00095 1.67374e-17
5491.00085 1.67364e-17
5492.00075 1.67555e-17
5493.00065 1.70073e-17
5494.00054 1.70064e-17
5495.00045 1.70196e-17
5496.00035 1.73970e-17
5497.00025 1.79541e-17
5498.00014 1.84885e-17
5499.00005 1.84874e-17
5499.99995 1.85727e-17
5500.99985 1.87415e-17
5501.99975 1.87405e-17
5502.99964 1.88591e-17
5503.99955 1.89889e-17
5504.99945 1.89878e-17
5505.99935 1.91480e-17
5506.99924 1.93163e-17
5507.99915 1.93359e-17
5508.99905 1.96699e-17
5509.99895 1.96688e-17
5510.99885 1.96708e-17
5511.99874 2.00346e-17
5512.99865 2.00335e-17
5513.99855 2.00489e-17
5514.99845 2.00478e-17
5515.99834 1.99776e-17
5516.99825 1.97324e-17
5517.99815 1.97313e-17
5518.99805 1.96426e-17
5519.99795 1.95780e-17
5520.99784 1.93221e-17
5521.99775 1.95605e-17
5522.99765 1.96384e-17
5523.99755 1.96373e-17
5524.99744 1.97237e-17
5525.99735 1.97226e-17
5526.99725 2.00347e-17
5527.99715 1.97205e-17
5528.99705 1.96319e-17
5529.99694 1.96309e-17
5530.99685 1.95950e-17
5531.99675 1.96287e-17
5532.99665 1.96277e-17
5533.99654 1.97324e-17
5534.99645 2.00670e-17
5535.99635 2.01608e-17
5536.99625 2.02173e-17
5537.99615 2.02625e-17
5538.99604 2.04397e-17
5539.99595 2.04386e-17
5540.99585 2.07978e-17
5541.99575 2.09129e-17
5542.99564 2.09731e-17
5543.99555 2.09719e-17
5544.99545 2.09432e-17
5545.99535 2.09421e-17
5546.99525 2.09410e-17
5548.00514 2.09398e-17
5549.00504 2.09387e-17
5550.00494 2.09244e-17
5551.00484 2.09028e-17
5552.00474 2.05383e-17
5553.00464 1.99185e-17
5554.00454 1.96693e-17
5555.00444 1.95426e-17
5556.00434 1.95415e-17
5557.00424 1.94115e-17
5558.00414 1.94104e-17
5559.00404 1.93730e-17
5560.00394 1.93640e-17
5561.00384 1.90138e-17
5562.00374 1.88570e-17
5563.00364 1.83506e-17
5564.00354 1.75087e-17
5565.00344 1.72211e-17
5566.00334 1.70266e-17
5567.00324 1.72193e-17
5568.00314 1.72183e-17
5569.00304 1.72174e-17
5570.00294 1.72165e-17
5571.00284 1.72156e-17
5572.00274 1.72147e-17
5573.00264 1.72138e-17
5574.00254 1.72129e-17
5575.00244 1.70185e-17
5576.00234 1.73339e-17
5577.00224 1.78075e-17
5578.00214 1.81402e-17
5579.00204 1.81393e-17
5580.00194 1.81383e-17
5581.00184 1.81374e-17
5582.00174 1.81364e-17
5583.00164 1.81355e-17
5584.00154 1.81345e-17
5585.00144 1.81336e-17
5586.00134 1.78508e-17
5587.00124 1.67230e-17
5588.00114 1.62263e-17
5589.00104 1.62254e-17
5590.00094 1.61584e-17
5591.00084 1.54896e-17
5592.00074 1.48218e-17
5593.00064 1.45810e-17
5594.00054 1.45393e-17
5595.00044 1.45385e-17
5596.00034 1.44174e-17
5597.00024 1.44166e-17
5598.00014 1.44159e-17
5599.00004 1.43800e-17
5599.99994 1.43793e-17
5600.99984 1.42039e-17
5601.99974 1.41114e-17
5602.99964 1.40562e-17
5603.99954 1.40555e-17
5604.99944 1.41092e-17
5605.99934 1.41488e-17
5606.99924 1.41480e-17
5607.99914 1.41473e-17
5608.99904 1.41063e-17
5609.99894 1.41055e-17
5610.99884 1.41048e-17
5611.99874 1.40497e-17
5612.99864 1.40162e-17
5613.99854 1.39435e-17
5614.99844 1.38606e-17
5615.99834 1.38550e-17
5616.99824 1.38543e-17
5617.99814 1.38294e-17
5618.99804 1.31447e-17
5619.99794 1.32286e-17
5620.99784 1.32280e-17
5621.99774 1.31426e-17
5622.99764 1.29288e-17
5623.99754 1.23089e-17
5624.99744 1.23083e-17
5625.99734 1.25294e-17
5626.99724 1.25288e-17
5627.99714 1.23064e-17
5628.99704 1.23058e-17
5629.99694 1.25269e-17
5630.99684 1.25262e-17
5631.99674 1.23039e-17
5632.99664 1.22241e-17
5633.99654 1.22235e-17
5634.99644 1.23020e-17
5635.99634 1.25231e-17
5636.99624 1.25224e-17
5637.99614 1.24353e-17
5638.99604 1.25212e-17
5639.99594 1.25205e-17
5640.99584 1.24638e-17
5641.99574 1.24328e-17
5642.99564 1.24000e-17
5643.99554 1.22143e-17
5644.99544 1.19226e-17
5645.99534 1.19220e-17
5646.99524 1.23975e-17
5647.99514 1.24291e-17
5648.99504 1.25324e-17
5649.99494 1.24581e-17
5651.00484 1.24575e-17
5652.00474 1.24569e-17
5653.00464 1.24260e-17
5654.00454 1.20797e-17
5655.00444 1.19167e-17
5656.00434 1.18736e-17
5657.00424 1.18502e-17
5658.00414 1.18496e-17
5659.00404 1.18490e-17
5660.00394 1.18484e-17
5661.00384 1.18478e-17
5662.00374 1.18472e-17
5663.00364 1.15887e-17
5664.00354 1.12772e-17
5665.00344 1.11033e-17
5666.00334 1.10962e-17
5667.00324 1.10956e-17
5668.00314 1.10551e-17
5669.00304 1.07932e-17
5670.00294 1.07927e-17
5671.00284 1.07922e-17
5672.00274 1.07071e-17
5673.00264 1.06788e-17
5674.00254 1.06783e-17
5675.00244 1.06778e-17
5676.00234 1.06772e-17
5677.00224 1.07045e-17
5678.00214 1.07039e-17
5679.00204 1.06757e-17
5680.00194 1.07029e-17
5681.00184 1.07869e-17
5682.00174 1.07018e-17
5683.00164 1.07013e-17
5684.00154 1.07008e-17
5685.00144 1.05413e-17
5686.00134 1.04033e-17
5687.00124 1.01255e-17
5688.00114 1.00694e-17
5689.00104 9.75767e-18
5690.00094 9.28360e-18
5691.00084 9.09704e-18
5692.00074 9.09659e-18
5693.00064 8.90584e-18
5694.00054 8.65658e-18
5695.00044 8.21008e-18
5696.00034 7.46572e-18
5697.00024 7.32668e-18
5698.00014 7.32632e-18
5699.00004 7.06987e-18
5699.99994 7.05807e-18
5700.99984 7.04217e-18
5701.99974 6.44159e-18
5702.99964 6.39245e-18
5703.99954 6.39214e-18
5704.99944 6.36557e-18
5705.99934 5.97463e-18
5706.99924 5.88319e-18
5707.99914 5.78974e-18
5708.99904 5.18171e-18
5709.99894 4.47449e-18
5710.99884 4.52666e-18
5711.99874 4.47406e-18
5712.99864 4.44755e-18
5713.99854 4.43535e-18
5714.99844 4.41805e-18
5715.99834 4.41501e-18
5716.99824 4.37666e-18
5717.99814 4.32427e-18
5718.99804 4.29030e-18
5719.99794 3.90551e-18
5720.99784 3.90532e-18
5721.99774 3.89394e-18
5722.99764 3.88828e-18
5723.99754 3.56106e-18
5724.99744 3.28101e-18
5725.99734 3.17900e-18
5726.99724 3.05143e-18
5727.99714 2.97865e-18
5728.99704 2.97851e-18
5729.99694 2.93335e-18
5730.99684 2.91206e-18
5731.99674 2.75366e-18
5732.99664 2.75353e-18
5733.99654 2.71902e-18
5734.99644 2.70241e-18
5735.99634 2.53903e-18
5736.99624 2.49042e-18
5737.99614 2.49030e-18
5738.99604 2.47982e-18
5739.99594 2.47970e-18
5740.99584 2.39576e-18
5741.99574 2.38527e-18
5742.99564 2.38515e-18
5743.99554 2.39542e-18
5744.99544 2.39531e-18
5745.99534 2.46327e-18
5746.99524 2.47889e-18
5748.00514 2.47877e-18
5749.00504 2.48902e-18
5750.00494 2.53736e-18
5751.00484 2.53725e-18
5752.00474 2.48867e-18
5753.00464 2.60054e-18
5754.00454 2.84195e-18
5755.00444 2.87136e-18
5756.00434 3.09128e-18
5757.00424 3.09231e-18
5758.00414 3.22328e-18
5759.00404 3.35241e-18
5760.00394 3.38686e-18
5761.00384 3.42005e-18
5762.00374 3.47410e-18
5763.00364 3.47394e-18
5764.00354 3.53953e-18
5765.00344 3.61759e-18
5766.00334 3.61742e-18
5767.00324 3.93770e-18
5768.00314 4.42175e-18
5769.00304 4.92215e-18
5770.00294 4.96268e-18
5771.00284 5.38904e-18
5772.00274 5.43474e-18
5773.00264 5.43449e-18
5774.00254 5.75077e-18
5775.00244 5.77960e-18
5776.00234 6.03647e-18
5777.00224 6.20616e-18
5778.00214 6.50897e-18
5779.00204 6.55074e-18
5780.00194 6.62608e-18
5781.00184 6.66730e-18
5782.00174 6.66700e-18
5783.00164 6.90581e-18
5784.00154 7.15138e-18
5785.00144 7.46416e-18
5786.00134 7.65715e-18
5787.00124 7.68293e-18
5788.00114 8.38454e-18
5789.00104 8.64541e-18
5790.00094 9.26492e-18
5791.00084 9.26451e-18
5792.00074 9.29843e-18
5793.00064 9.47914e-18
5794.00054 9.68006e-18
5795.00044 9.96579e-18
5796.00034 9.96902e-18
5797.00024 1.01510e-17
5798.00014 1.01505e-17
5799.00004 1.01579e-17
5799.99994 1.01725e-17
5800.99984 1.04661e-17
5801.99974 1.01716e-17
5802.99964 1.04652e-17
5803.99954 1.05501e-17
5804.99944 1.05783e-17
5805.99934 1.05778e-17
5806.99924 1.12679e-17
5807.99914 1.17620e-17
5808.99904 1.17614e-17
5809.99894 1.20848e-17
5810.99884 1.26948e-17
5811.99874 1.28397e-17
5812.99864 1.29344e-17
5813.99854 1.30945e-17
5814.99844 1.33324e-17
5815.99834 1.35597e-17
5816.99824 1.35987e-17
5817.99814 1.36413e-17
5818.99804 1.39689e-17
5819.99794 1.41145e-17
5820.99784 1.42476e-17
5821.99774 1.41132e-17
5822.99764 1.45998e-17
5823.99754 1.46689e-17
5824.99744 1.50930e-17
5825.99734 1.51745e-17
5826.99724 1.51738e-17
5827.99714 1.53311e-17
5828.99704 1.53407e-17
5829.99694 1.53800e-17
5830.99684 1.55115e-17
5831.99674 1.55368e-17
5832.99664 1.55652e-17
5833.99654 1.55670e-17
5834.99644 1.55663e-17
5835.99634 1.65592e-17
5836.99624 1.68174e-17
5837.99614 1.75106e-17
5838.99604 1.77855e-17
5839.99594 1.80908e-17
5840.99584 1.80900e-17
5841.99574 1.81852e-17
5842.99564 1.81844e-17
5843.99554 1.81836e-17
5844.99544 1.81828e-17
5845.99534 1.85659e-17
5846.99524 1.86621e-17
5847.99514 1.86613e-17
5848.99504 1.91578e-17
5849.99494 1.91570e-17
5851.00484 1.92765e-17
5852.00474 1.93734e-17
5853.00464 1.94852e-17
5854.00454 1.94820e-17
5855.00444 1.94835e-17
5856.00434 1.94850e-17
5857.00424 1.99582e-17
5858.00414 2.04465e-17
5859.00404 2.06313e-17
5860.00394 2.08294e-17
5861.00384 2.13259e-17
5862.00374 2.14615e-17
5863.00364 2.16304e-17
5864.00354 2.16295e-17
5865.00344 2.14588e-17
5866.00334 2.14578e-17
5867.00324 2.14569e-17
5868.00314 2.19790e-17
5869.00304 2.24896e-17
5870.00294 2.24886e-17
5871.00284 2.25976e-17
5872.00274 2.25966e-17
5873.00264 2.26845e-17
5874.00254 2.25947e-17
5875.00244 2.22113e-17
5876.00234 2.22103e-17
5877.00224 2.22094e-17
5878.00214 2.22084e-17
5879.00204 2.19687e-17
5880.00194 2.12562e-17
5881.00184 2.03807e-17
5882.00174 1.96282e-17
5883.00164 1.90394e-17
5884.00154 1.87420e-17
5885.00144 1.89693e-17
5886.00134 1.89318e-17
5887.00124 1.87396e-17
5888.00114 1.84289e-17
5889.00104 1.84281e-17
5890.00094 1.84273e-17
5891.00084 1.84266e-17
5892.00074 1.84258e-17
5893.00064 1.84243e-17
5894.00054 1.84235e-17
5895.00044 1.87333e-17
5896.00034 1.87325e-17
5897.00024 1.86630e-17
5898.00014 1.82820e-17
5899.00004 1.85688e-17
5899.99994 1.85680e-17
5900.99984 1.85673e-17
5901.99974 1.82789e-17
5902.99964 1.80980e-17
5903.99954 1.80973e-17
5904.99944 1.82766e-17
5905.99934 1.85634e-17
5906.99924 1.80950e-17
5907.99914 1.85618e-17
5908.99904 1.85611e-17
5909.99894 1.85603e-17
5910.99884 1.85595e-17
5911.99874 1.85587e-17
5912.99864 1.85580e-17
5913.99854 1.85572e-17
5914.99844 1.87398e-17
5915.99834 1.87390e-17
5916.99824 1.91613e-17
5917.99814 1.91605e-17
5918.99804 1.91597e-17
5919.99794 1.91589e-17
5920.99784 1.91581e-17
5921.99774 1.96060e-17
5922.99764 1.98539e-17
5923.99754 2.01931e-17
5924.99744 2.04146e-17
5925.99734 2.04138e-17
5926.99724 2.04129e-17
5927.99714 2.04121e-17
5928.99704 2.03597e-17
5929.99694 2.03589e-17
5930.99684 1.97606e-17
5931.99674 1.97598e-17
5932.99664 1.97590e-17
5933.99654 1.97582e-17
5934.99644 1.98181e-17
5935.99634 2.01831e-17
5936.99624 2.01823e-17
5937.99614 2.01815e-17
5938.99604 2.03513e-17
5939.99594 1.98308e-17
5940.99584 1.98132e-17
5941.99574 1.97517e-17
5942.99564 1.86737e-17
5943.99554 1.80490e-17
5944.99544 1.80483e-17
5945.99534 1.79680e-17
5946.99524 1.78161e-17
5947.99514 1.78154e-17
5949.00504 1.78147e-17
5950.00494 1.77941e-17
5951.00484 1.75457e-17
5952.00474 1.74121e-17
5953.00464 1.73369e-17
5954.00454 1.73348e-17
5955.00444 1.73341e-17
5956.00434 1.71967e-17
5957.00424 1.71960e-17
5958.00414 1.73100e-17
5959.00404 1.73093e-17
5960.00394 1.73086e-17
5961.00384 1.73079e-17
5962.00374 1.71925e-17
5963.00364 1.69223e-17
5964.00354 1.69216e-17
5965.00344 1.66914e-17
5966.00334 1.64205e-17
5967.00324 1.66900e-17
5968.00314 1.66894e-17
5969.00304 1.66475e-17
5970.00294 1.64178e-17
5971.00284 1.59502e-17
5972.00274 1.56729e-17
5973.00264 1.50828e-17
5974.00254 1.49176e-17
5975.00244 1.49170e-17
5976.00234 1.49164e-17
5977.00224 1.49158e-17
5978.00214 1.49152e-17
5979.00204 1.49068e-17
5980.00194 1.49062e-17
5981.00184 1.49056e-17
5982.00174 1.46521e-17
5983.00164 1.46515e-17
5984.00154 1.45872e-17
5985.00144 1.45543e-17
5986.00134 1.45861e-17
5987.00124 1.45855e-17
5988.00114 1.45525e-17
5989.00104 1.42656e-17
5990.00094 1.40535e-17
5991.00084 1.38139e-17
5992.00074 1.37912e-17
5993.00064 1.34408e-17
5994.00054 1.33568e-17
5995.00044 1.33229e-17
5996.00034 1.33224e-17
5997.00024 1.33553e-17
5998.00014 1.33213e-17
5999.00004 1.32675e-17
5999.99994 1.32670e-17
6000.99984 1.32824e-17
6001.99974 1.32660e-17
6002.99964 1.32655e-17
6003.99954 1.32649e-17
6004.99944 1.32487e-17
6005.99934 1.32639e-17
6006.99924 1.32113e-17
6007.99914 1.28944e-17
6008.99904 1.28384e-17
6009.99894 1.28379e-17
6010.99884 1.28374e-17
6011.99874 1.28369e-17
6012.99864 1.26233e-17
6013.99854 1.26228e-17
6014.99844 1.26223e-17
6015.99834 1.26114e-17
6016.99824 1.26109e-17
6017.99814 1.25540e-17
6018.99804 1.23141e-17
6019.99794 1.22123e-17
6020.99784 1.21203e-17
6021.99774 1.19550e-17
6022.99764 1.19545e-17
6023.99754 1.19541e-17
6024.99744 1.19536e-17
6025.99734 1.21179e-17
6026.99724 1.22090e-17
6027.99714 1.22085e-17
6028.99704 1.22080e-17
6029.99694 1.21160e-17
6030.99684 1.22071e-17
6031.99674 1.22066e-17
6032.99664 1.22062e-17
6033.99654 1.22259e-17
6034.99644 1.25924e-17
6035.99634 1.25919e-17
6036.99624 1.25914e-17
6037.99614 1.25910e-17
6038.99604 1.22474e-17
6039.99594 1.19313e-17
6040.99584 1.19309e-17
6041.99574 1.19304e-17
6042.99564 1.19300e-17
6043.99554 1.22438e-17
6044.99544 1.23409e-17
6045.99534 1.24223e-17
6046.99524 1.26263e-17
6047.99514 1.26258e-17
6048.99504 1.26254e-17
6049.99494 1.26249e-17
6051.00484 1.24199e-17
6052.00474 1.22401e-17
6053.00464 1.22396e-17
6054.00454 1.22531e-17
6055.00444 1.23138e-17
6056.00434 1.23133e-17
6057.00424 1.23128e-17
6058.00414 1.22513e-17
6059.00404 1.23119e-17
6060.00394 1.25751e-17
6061.00384 1.23110e-17
6062.00374 1.22494e-17
6063.00364 1.20386e-17
6064.00354 1.20382e-17
6065.00344 1.20377e-17
6066.00334 1.20373e-17
6067.00324 1.20014e-17
6068.00314 1.20364e-17
6069.00304 1.22567e-17
6070.00294 1.23068e-17
6071.00284 1.23063e-17
6072.00274 1.22553e-17
6073.00264 1.19987e-17
6074.00254 1.19983e-17
6075.00244 1.19978e-17
6076.00234 1.18977e-17
6077.00224 1.18972e-17
6078.00214 1.18968e-17
6079.00204 1.23511e-17
6080.00194 1.23506e-17
6081.00184 1.23502e-17
6082.00174 1.18315e-17
6083.00164 1.15363e-17
6084.00154 1.12772e-17
6085.00144 1.12768e-17
6086.00134 1.12764e-17
6087.00124 1.12760e-17
6088.00114 1.15067e-17
6089.00104 1.15337e-17
6090.00094 1.16028e-17
6091.00084 1.16024e-17
6092.00074 1.16020e-17
6093.00064 1.16016e-17
6094.00054 1.15042e-17
6095.00044 1.14861e-17
6096.00034 1.12722e-17
6097.00024 1.11773e-17
6098.00014 1.11170e-17
6099.00004 1.11165e-17
6099.99994 1.12216e-17
6100.99984 1.14835e-17
6101.99974 1.14831e-17
6102.99964 1.14827e-17
6103.99954 1.14822e-17
6104.99944 1.14818e-17
6105.99934 1.14814e-17
6106.99924 1.14810e-17
6107.99914 1.12183e-17
6108.99904 1.21392e-17
6109.99894 1.24188e-17
6110.99884 1.25642e-17
6111.99874 1.28061e-17
6112.99864 1.28056e-17
6113.99854 1.28052e-17
6114.99844 1.28047e-17
6115.99834 1.31709e-17
6116.99824 1.33168e-17
6117.99814 1.33163e-17
6118.99804 1.33316e-17
6119.99794 1.34743e-17
6120.99784 1.33307e-17
6121.99774 1.33144e-17
6122.99764 1.32768e-17
6123.99754 1.26986e-17
6124.99744 1.26982e-17
6125.99734 1.26212e-17
6126.99724 1.24314e-17
6127.99714 1.23716e-17
6128.99704 1.23712e-17
6129.99694 1.22249e-17
6130.99684 1.24100e-17
6131.99674 1.22111e-17
6132.99664 1.22106e-17
6133.99654 1.24087e-17
6134.99644 1.23221e-17
6135.99634 1.22093e-17
6136.99624 1.20927e-17
6137.99614 1.20327e-17
6138.99604 1.19371e-17
6139.99594 1.19367e-17
6140.99584 1.18082e-17
6141.99574 1.17748e-17
6142.99564 1.17743e-17
6143.99554 1.18069e-17
6144.99544 1.20296e-17
6145.99534 1.22079e-17
6146.99524 1.23167e-17
6147.99514 1.23163e-17
6149.00504 1.23158e-17
6150.00494 1.23154e-17
6151.00484 1.23150e-17
6152.00474 1.21743e-17
6153.00464 1.21738e-17
6154.00454 1.21734e-17
6155.00444 1.21730e-17
6156.00434 1.21725e-17
6157.00424 1.21721e-17
6158.00414 1.21717e-17
6159.00404 1.21712e-17
6160.00394 1.20969e-17
6161.00384 1.20965e-17
6162.00374 1.18836e-17
6163.00364 1.17726e-17
6164.00354 1.18787e-17
6165.00344 1.17717e-17
6166.00334 1.17331e-17
6167.00324 1.17326e-17
6168.00314 1.17235e-17
6169.00304 1.14430e-17
6170.00294 1.13803e-17
6171.00284 1.13310e-17
6172.00274 1.13306e-17
6173.00264 1.13302e-17
6174.00254 1.17210e-17
6175.00244 1.17206e-17
6176.00234 1.17202e-17
6177.00224 1.17574e-17
6178.00214 1.18728e-17
6179.00204 1.18724e-17
6180.00194 1.20108e-17
6181.00184 1.23727e-17
6182.00174 1.24952e-17
6183.00164 1.24947e-17
6184.00154 1.24943e-17
6185.00144 1.25106e-17
6186.00134 1.25242e-17
6187.00124 1.25237e-17
6188.00114 1.25318e-17
6189.00104 1.25313e-17
6190.00094 1.25406e-17
6191.00084 1.27889e-17
6192.00074 1.29730e-17
6193.00064 1.29734e-17
6194.00054 1.33115e-17
6195.00044 1.29725e-17
6196.00034 1.29720e-17
6197.00024 1.29707e-17
6198.00014 1.28428e-17
6199.00004 1.27853e-17
6199.99994 1.25362e-17
6200.99984 1.25357e-17
6201.99974 1.27839e-17
6202.99964 1.27835e-17
6203.99954 1.28606e-17
6204.99944 1.29179e-17
6205.99934 1.29175e-17
6206.99924 1.28593e-17
6207.99914 1.24447e-17
6208.99904 1.24345e-17
6209.99894 1.19703e-17
6210.99884 1.19558e-17
6211.99874 1.19554e-17
6212.99864 1.19550e-17
6213.99854 1.19546e-17
6214.99844 1.23057e-17
6215.99834 1.24315e-17
6216.99824 1.25269e-17
6217.99814 1.28376e-17
6218.99804 1.28372e-17
6219.99794 1.28368e-17
6220.99784 1.24293e-17
6221.99774 1.24289e-17
6222.99764 1.24670e-17
6223.99754 1.25239e-17
6224.99744 1.28345e-17
6225.99734 1.30894e-17
6226.99724 1.32186e-17
6227.99714 1.33237e-17
6228.99704 1.35400e-17
6229.99694 1.36061e-17
6230.99684 1.36056e-17
6231.99674 1.36198e-17
6232.99664 1.36928e-17
6233.99654 1.38372e-17
6234.99644 1.41053e-17
6235.99634 1.41091e-17
6236.99624 1.44357e-17
6237.99614 1.45235e-17
6238.99604 1.45230e-17
6239.99594 1.45409e-17
6240.99584 1.45467e-17
6241.99574 1.45930e-17
6242.99564 1.46222e-17
6243.99554 1.46438e-17
6244.99544 1.46610e-17
6245.99534 1.47625e-17
6246.99524 1.47896e-17
6247.99514 1.47891e-17
6248.99504 1.46590e-17
6249.99494 1.46187e-17
6251.00484 1.46117e-17
6252.00474 1.46177e-17
6253.00464 1.46393e-17
6254.00454 1.46565e-17
6255.00444 1.49507e-17
6256.00434 1.50743e-17
6257.00424 1.55554e-17
6258.00414 1.57260e-17
6259.00404 1.57254e-17
6260.00394 1.55538e-17
6261.00384 1.50233e-17
6262.00374 1.48364e-17
6263.00364 1.45864e-17
6264.00354 1.44603e-17
6265.00344 1.44598e-17
6266.00334 1.44594e-17
6267.00324 1.44589e-17
6268.00314 1.44584e-17
6269.00304 1.42557e-17
6270.00294 1.39295e-17
6271.00284 1.33657e-17
6272.00274 1.32516e-17
6273.00264 1.32512e-17
6274.00254 1.32288e-17
6275.00244 1.31782e-17
6276.00234 1.31778e-17
6277.00224 1.31773e-17
6278.00214 1.31769e-17
6279.00204 1.31660e-17
6280.00194 1.31655e-17
6281.00184 1.30838e-17
6282.00174 1.31646e-17
6283.00164 1.30830e-17
6284.00154 1.30825e-17
6285.00144 1.30821e-17
6286.00134 1.31086e-17
6287.00124 1.31624e-17
6288.00114 1.31620e-17
6289.00104 1.31720e-17
6290.00094 1.39424e-17
6291.00084 1.39419e-17
6292.00074 1.39414e-17
6293.00064 1.39355e-17
6294.00054 1.34790e-17
6295.00044 1.31046e-17
6296.00034 1.28557e-17
6297.00024 1.28553e-17
6298.00014 1.29465e-17
6299.00004 1.31029e-17
6299.99994 1.31406e-17
6300.99984 1.34758e-17
6301.99974 1.37499e-17
6302.99964 1.37494e-17
6303.99954 1.37350e-17
6304.99944 1.34741e-17
6305.99934 1.31379e-17
6306.99924 1.29426e-17
6307.99914 1.29302e-17
6308.99904 1.28501e-17
6309.99894 1.28497e-17
6310.99884 1.29289e-17
6311.99874 1.29285e-17
6312.99864 1.29400e-17
6313.99854 1.29276e-17
6314.99844 1.27722e-17
6315.99834 1.27553e-17
6316.99824 1.21543e-17
6317.99814 1.21539e-17
6318.99804 1.20544e-17
6319.99794 1.18805e-17
6320.99784 1.18801e-17
6321.99774 1.18155e-17
6322.99764 1.18151e-17
6323.99754 1.17052e-17
6324.99744 1.12955e-17
6325.99734 1.12663e-17
6326.99724 1.11900e-17
6327.99714 1.10932e-17
6328.99704 1.10928e-17
6329.99694 1.09624e-17
6330.99684 1.08563e-17
6331.99674 1.07280e-17
6332.99664 1.07277e-17
6333.99654 1.05641e-17
6334.99644 1.04096e-17
6335.99634 1.01995e-17
6336.99624 1.00324e-17
6337.99614 9.58367e-18
6338.99604 8.98954e-18
6339.99594 9.22606e-18
6340.99584 9.22576e-18
6341.99574 9.22545e-18
6342.99564 9.22515e-18
6343.99554 8.98807e-18
6344.99544 8.82449e-18
6345.99534 8.81872e-18
6346.99524 8.76198e-18
6347.99514 8.73798e-18
6349.00504 8.73770e-18
6350.00494 8.76111e-18
6351.00484 8.77186e-18
6352.00474 8.76054e-18
6353.00464 8.81669e-18
6354.00454 8.81640e-18
6355.00444 8.81611e-18
6356.00434 8.82131e-18
6357.00424 8.66878e-18
6358.00414 8.66849e-18
6359.00404 8.66821e-18
6360.00394 8.82015e-18
6361.00384 8.84550e-18
6362.00374 8.91754e-18
6363.00364 8.94779e-18
6364.00354 9.02416e-18
6365.00344 9.02386e-18
6366.00334 9.25054e-18
6367.00324 9.60466e-18
6368.00314 9.60435e-18
6369.00304 9.60404e-18
6370.00294 9.60372e-18
6371.00284 9.60341e-18
6372.00274 9.60310e-18
6373.00264 9.60577e-18
6374.00254 9.61547e-18
6375.00244 9.68608e-18
6376.00234 9.69864e-18
6377.00224 9.71193e-18
6378.00214 9.71162e-18
6379.00204 9.71130e-18
6380.00194 9.71099e-18
6381.00184 9.63228e-18
6382.00174 9.63197e-18
6383.00164 9.63166e-18
6384.00154 9.63135e-18
6385.00144 9.64606e-18
6386.00134 9.70910e-18
6387.00124 9.83377e-18
6388.00114 9.93209e-18
6389.00104 9.98111e-18
6390.00094 9.98079e-18
6391.00084 9.98047e-18
6392.00074 1.00494e-17
6393.00064 1.00491e-17
6394.00054 1.01617e-17
6395.00044 1.04573e-17
6396.00034 1.04581e-17
6397.00024 1.04578e-17
6398.00014 1.06086e-17
6399.00004 1.09670e-17
6399.99994 1.12016e-17
6400.99984 1.14560e-17
6401.99974 1.18611e-17
6402.99964 1.20225e-17
6403.99954 1.22574e-17
6404.99944 1.23004e-17
6405.99934 1.23000e-17
6406.99924 1.27632e-17
6407.99914 1.28444e-17
6408.99904 1.34363e-17
6409.99894 1.35997e-17
6410.99884 1.35993e-17
6411.99874 1.41574e-17
6412.99864 1.52115e-17
6413.99854 1.52456e-17
6414.99844 1.55001e-17
6415.99834 1.59225e-17
6416.99824 1.59932e-17
6417.99814 1.68234e-17
6418.99804 1.68430e-17
6419.99794 1.70402e-17
6420.99784 1.72096e-17
6421.99774 1.73064e-17
6422.99764 1.73058e-17
6423.99754 1.76094e-17
6424.99744 1.76093e-17
6425.99734 1.79524e-17
6426.99724 1.83238e-17
6427.99714 1.84344e-17
6428.99704 1.87466e-17
6429.99694 1.88964e-17
6430.99684 1.88958e-17
6431.99674 1.90597e-17
6432.99664 1.90591e-17
6433.99654 1.92927e-17
6434.99644 1.93775e-17
6435.99634 1.94892e-17
6436.99624 1.96643e-17
6437.99614 1.96637e-17
6438.99604 2.06283e-17
6439.99594 2.06277e-17
6440.99584 2.06270e-17
6441.99574 2.07043e-17
6442.99564 2.13812e-17
6443.99554 2.15230e-17
6444.99544 2.15224e-17
6445.99534 2.17440e-17
6447.00523 2.17433e-17
6448.00513 2.17426e-17
6449.00504 2.13771e-17
6450.00493 2.05544e-17
6451.00483 2.02163e-17
6452.00473 2.01917e-17
6453.00463 2.00745e-17
6454.00454 2.01904e-17
6455.00443 2.01897e-17
6456.00433 2.01891e-17
6457.00423 2.01885e-17
6458.00414 2.01878e-17
6459.00403 2.01872e-17
6460.00393 2.01865e-17
6461.00383 2.01859e-17
6462.00373 2.00688e-17
6463.00364 2.02662e-17
6464.00353 2.04476e-17
6465.00343 2.06400e-17
6466.00333 2.10490e-17
6467.00324 2.12928e-17
6468.00313 2.15601e-17
6469.00303 2.18770e-17
6470.00293 2.19661e-17
6471.00283 2.21364e-17
6472.00274 2.21357e-17
6473.00263 2.19640e-17
6474.00253 2.21343e-17
6475.00243 2.21336e-17
6476.00234 2.21329e-17
6477.00223 2.23148e-17
6478.00213 2.24429e-17
6479.00203 2.24422e-17
6480.00193 2.25514e-17
6481.00184 2.25894e-17
6482.00173 2.26577e-17
6483.00163 2.26570e-17
6484.00153 2.25873e-17
6485.00144 2.25479e-17
6486.00133 2.25859e-17
6487.00123 2.29365e-17
6488.00113 2.30725e-17
6489.00103 2.33088e-17
6490.00094 2.33081e-17
6491.00083 2.33821e-17
6492.00073 2.37004e-17
6493.00063 2.36996e-17
6494.00054 2.36989e-17
6495.00043 2.37399e-17
6496.00033 2.37392e-17
6497.00023 2.34692e-17
6498.00013 2.34685e-17
6499.00004 2.34677e-17
6499.99993 2.34670e-17
6500.99983 2.38253e-17
6501.99973 2.34655e-17
6502.99964 2.32083e-17
6503.99953 2.17655e-17
6504.99943 2.08161e-17
6505.99933 2.13015e-17
6506.99923 2.13008e-17
6507.99914 2.13002e-17
6508.99903 2.12995e-17
6509.99893 2.12988e-17
6510.99883 2.12982e-17
6511.99874 2.10028e-17
6512.99863 2.08109e-17
6513.99853 2.03095e-17
6514.99843 2.02625e-17
6515.99833 2.02438e-17
6516.99824 1.95293e-17
6517.99813 1.92990e-17
6518.99803 1.92984e-17
6519.99793 1.92978e-17
6520.99784 1.90563e-17
6521.99773 1.90557e-17
6522.99763 1.89649e-17
6523.99753 1.87482e-17
6524.99743 1.79192e-17
6525.99734 1.78687e-17
6526.99723 1.76107e-17
6527.99713 1.76101e-17
6528.99703 1.75486e-17
6529.99694 1.73843e-17
6530.99683 1.73257e-17
6531.99673 1.71611e-17
6532.99663 1.71605e-17
6533.99653 1.71469e-17
6534.99644 1.70464e-17
6535.99633 1.69024e-17
6536.99623 1.64876e-17
6537.99613 1.63327e-17
6538.99604 1.64866e-17
6539.99593 1.64861e-17
6540.99583 1.64856e-17
6541.99573 1.63306e-17
6542.99563 1.62594e-17
6543.99554 1.58504e-17
6544.99543 1.58499e-17
6545.99533 1.57932e-17
6546.99523 1.57080e-17
6547.99514 1.55466e-17
6549.00503 1.55461e-17
6550.00493 1.55456e-17
6551.00483 1.55451e-17
6552.00473 1.55780e-17
6553.00463 1.57051e-17
6554.00453 1.58107e-17
6555.00443 1.57888e-17
6556.00433 1.57036e-17
6557.00423 1.55755e-17
6558.00413 1.55750e-17
6559.00403 1.55746e-17
6560.00393 1.53701e-17
6561.00383 1.53696e-17
6562.00373 1.53691e-17
6563.00363 1.55098e-17
6564.00353 1.55721e-17
6565.00343 1.55813e-17
6566.00333 1.55808e-17
6567.00323 1.56459e-17
6568.00313 1.57279e-17
6569.00303 1.58034e-17
6570.00293 1.58551e-17
6571.00283 1.58971e-17
6572.00273 1.59182e-17
6573.00263 1.59177e-17
6574.00253 1.59198e-17
6575.00243 1.59193e-17
6576.00233 1.59188e-17
6577.00223 1.59183e-17
6578.00213 1.60013e-17
6579.00203 1.61331e-17
6580.00193 1.65912e-17
6581.00183 1.67091e-17
6582.00173 1.70518e-17
6583.00163 1.72885e-17
6584.00153 1.72879e-17
6585.00143 1.72874e-17
6586.00133 1.72869e-17
6587.00123 1.72863e-17
6588.00113 1.72858e-17
6589.00103 1.70481e-17
6590.00093 1.72847e-17
6591.00083 1.75528e-17
6592.00073 1.78457e-17
6593.00063 1.82210e-17
6594.00053 1.88195e-17
6595.00043 1.95908e-17
6596.00033 2.00887e-17
6597.00023 2.02142e-17
6598.00013 2.02798e-17
6599.00003 2.05987e-17
6599.99993 2.06430e-17
6600.99983 2.07030e-17
6601.99973 2.07024e-17
6602.99963 2.07945e-17
6603.99953 2.11572e-17
6604.99943 2.15011e-17
6605.99933 2.17214e-17
6606.99923 2.17207e-17
6607.99913 2.26660e-17
6608.99903 2.28957e-17
6609.99893 2.28950e-17
6610.99883 2.29020e-17
6611.99873 2.29232e-17
6612.99863 2.32353e-17
6613.99853 2.32626e-17
6614.99843 2.32902e-17
6615.99833 2.34883e-17
6616.99823 2.34876e-17
6617.99813 2.34868e-17
6618.99803 2.34861e-17
6619.99793 2.32866e-17
6620.99783 2.33754e-17
6621.99773 2.34325e-17
6622.99763 2.34832e-17
6623.99753 2.35594e-17
6624.99743 2.37009e-17
6625.99733 2.38642e-17
6626.99723 2.42293e-17
6627.99713 2.42824e-17
6628.99703 2.42899e-17
6629.99693 2.48112e-17
6630.99683 2.43277e-17
6631.99673 2.43270e-17
6632.99663 2.43262e-17
6633.99653 2.42779e-17
6634.99643 2.43247e-17
6635.99633 2.48067e-17
6636.99623 2.48366e-17
6637.99613 2.48358e-17
6638.99603 2.52852e-17
6639.99593 2.52844e-17
6640.99583 2.48335e-17
6641.99573 2.48327e-17
6642.99563 2.48320e-17
6643.99553 2.45541e-17
6644.99543 2.43173e-17
6645.99533 2.39747e-17
6647.00523 2.36684e-17
6648.00513 2.35355e-17
6649.00503 2.33913e-17
6650.00493 2.32137e-17
6651.00483 2.30523e-17
6652.00473 2.29428e-17
6653.00463 2.28759e-17
6654.00453 2.27390e-17
6655.00443 2.24285e-17
6656.00433 2.22492e-17
6657.00423 2.24272e-17
6658.00413 2.24265e-17
6659.00403 2.24258e-17
6660.00393 2.23136e-17
6661.00383 2.22458e-17
6662.00373 2.21158e-17
6663.00363 2.20767e-17
6664.00353 2.20145e-17
6665.00343 2.19547e-17
6666.00333 2.19540e-17
6667.00323 2.19776e-17
6668.00313 2.19770e-17
6669.00303 2.20112e-17
6670.00293 2.20637e-17
6671.00283 2.20630e-17
6672.00273 2.20623e-17
6673.00263 2.20616e-17
6674.00253 2.15013e-17
6675.00243 2.14640e-17
6676.00233 2.13544e-17
6677.00223 2.12294e-17
6678.00213 2.11636e-17
6679.00203 2.10975e-17
6680.00193 2.10968e-17
6681.00183 2.09506e-17
6682.00173 2.08212e-17
6683.00163 2.06777e-17
6684.00153 2.05414e-17
6685.00143 2.06764e-17
6686.00133 2.06758e-17
6687.00123 2.06752e-17
6688.00113 2.05388e-17
6689.00103 2.05113e-17
6690.00093 2.04532e-17
6691.00083 2.03120e-17
6692.00073 2.01602e-17
6693.00063 2.01596e-17
6694.00053 2.01590e-17
6695.00043 2.01584e-17
6696.00033 2.04850e-17
6697.00023 2.04844e-17
6698.00013 2.04837e-17
6699.00003 2.04831e-17
6699.99993 2.04470e-17
6700.99983 2.02304e-17
6701.99973 2.01580e-17
6702.99963 2.01534e-17
6703.99953 2.01337e-17
6704.99943 2.00449e-17
6705.99933 2.01324e-17
6706.99923 2.00437e-17
6707.99913 1.99572e-17
6708.99903 1.96518e-17
6709.99893 1.93288e-17
6710.99883 1.89851e-17
6711.99873 1.86359e-17
6712.99863 1.83328e-17
6713.99853 1.80654e-17
6714.99843 1.77173e-17
6715.99833 1.71680e-17
6716.99823 1.71675e-17
6717.99813 1.71669e-17
6718.99803 1.71664e-17
6719.99793 1.71659e-17
6720.99783 1.71507e-17
6721.99773 1.70567e-17
6722.99763 1.65495e-17
6723.99753 1.61787e-17
6724.99743 1.61519e-17
6725.99733 1.61514e-17
6726.99723 1.61509e-17
6727.99713 1.61767e-17
6728.99703 1.61807e-17
6729.99693 1.67047e-17
6730.99683 1.68139e-17
6731.99673 1.68375e-17
6732.99663 1.68370e-17
6733.99653 1.68124e-17
6734.99643 1.64245e-17
6735.99633 1.61772e-17
6736.99623 1.61722e-17
6737.99613 1.52240e-17
6738.99603 1.51722e-17
6739.99593 1.49002e-17
6740.99583 1.48998e-17
6741.99573 1.42799e-17
6742.99563 1.42794e-17
6743.99553 1.40587e-17
6744.99543 1.39304e-17
6745.99533 1.33090e-17
6746.99523 1.31926e-17
6747.99513 1.33081e-17
6749.00503 1.33077e-17
6750.00493 1.31914e-17
6751.00483 1.30430e-17
6752.00473 1.25932e-17
6753.00463 1.25928e-17
6754.00453 1.25924e-17
6755.00443 1.24888e-17
6756.00433 1.24884e-17
6757.00423 1.24880e-17
6758.00413 1.27086e-17
6759.00403 1.30285e-17
6760.00393 1.30281e-17
6761.00383 1.30277e-17
6762.00373 1.27070e-17
6763.00363 1.27067e-17
6764.00353 1.27063e-17
6765.00343 1.26710e-17
6766.00333 1.25566e-17
6767.00323 1.25004e-17
6768.00313 1.25558e-17
6769.00303 1.25554e-17
6770.00293 1.24992e-17
6771.00283 1.24224e-17
6772.00273 1.23906e-17
6773.00263 1.17990e-17
6774.00253 1.16601e-17
6775.00243 1.16598e-17
6776.00233 1.15935e-17
6777.00223 1.14645e-17
6778.00213 1.12963e-17
6779.00203 1.11702e-17
6780.00193 1.11699e-17
6781.00183 1.11695e-17
6782.00173 1.10807e-17
6783.00163 1.10759e-17
6784.00153 1.10350e-17
6785.00143 1.10752e-17
6786.00133 1.10749e-17
6787.00123 1.09888e-17
6788.00113 1.09683e-17
6789.00103 1.08497e-17
6790.00093 1.07899e-17
6791.00083 1.07896e-17
6792.00073 1.07562e-17
6793.00063 1.07331e-17
6794.00053 1.06260e-17
6795.00043 1.05023e-17
6796.00033 1.04862e-17
6797.00023 1.03954e-17
6798.00013 1.03829e-17
6799.00003 9.98904e-18
6799.99993 9.67159e-18
6800.99983 9.67130e-18
6801.99973 9.56457e-18
6802.99963 9.34778e-18
6803.99953 9.25577e-18
6804.99943 8.99471e-18
6805.99933 8.99443e-18
6806.99923 8.99416e-18
6807.99913 9.17076e-18
6808.99903 9.06127e-18
6809.99893 8.99333e-18
6810.99883 8.99306e-18
6811.99873 9.06044e-18
6812.99863 9.06016e-18
6813.99853 8.99223e-18
6814.99843 8.99196e-18
6815.99833 8.99168e-18
6816.99823 9.16823e-18
6817.99813 9.27697e-18
6818.99803 9.27843e-18
6819.99793 9.27640e-18
6820.99783 9.27612e-18
6821.99773 9.27583e-18
6822.99763 9.27555e-18
6823.99753 9.10988e-18
6824.99743 9.05683e-18
6825.99733 8.96571e-18
6826.99723 8.96544e-18
6827.99713 8.89118e-18
6828.99703 8.90480e-18
6829.99693 8.90453e-18
6830.99683 8.89036e-18
6831.99673 8.85490e-18
6832.99663 8.62312e-18
6833.99653 8.45993e-18
6834.99643 8.31721e-18
6835.99633 8.15189e-18
6836.99623 8.02752e-18
6837.99613 7.87240e-18
6838.99603 7.84171e-18
6839.99593 7.84049e-18
6840.99583 7.73739e-18
6841.99573 7.68890e-18
6842.99563 7.83977e-18
6843.99553 7.87095e-18
6844.99543 7.87071e-18
6845.99533 7.78773e-18
6847.00523 7.77544e-18
6848.00513 7.77520e-18
6849.00503 7.76982e-18
6850.00493 7.67294e-18
6851.00483 7.66705e-18
6852.00473 7.62797e-18
6853.00463 7.62774e-18
6854.00453 7.58062e-18
6855.00443 7.37306e-18
6856.00433 7.34911e-18
6857.00423 7.34888e-18
6858.00413 7.34866e-18
6859.00403 7.16934e-18
6860.00393 7.03715e-18
6861.00383 6.88406e-18
6862.00373 6.64449e-18
6863.00363 6.35018e-18
6864.00353 6.64408e-18
6865.00343 6.64388e-18
6866.00333 6.64368e-18
6867.00323 6.64347e-18
6868.00313 6.53005e-18
6869.00303 6.34901e-18
6870.00293 6.31891e-18
6871.00283 6.11880e-18
6872.00273 6.11861e-18
6873.00263 6.11842e-18
6874.00253 6.16654e-18
6875.00243 6.16635e-18
6876.00233 6.16616e-18
6877.00223 6.22508e-18
6878.00213 6.22489e-18
6879.00203 6.22470e-18
6880.00193 6.11144e-18
6881.00183 5.82022e-18
6882.00173 5.80591e-18
6883.00163 5.69757e-18
6884.00153 5.58038e-18
6885.00143 5.58021e-18
6886.00133 5.57224e-18
6887.00123 5.55996e-18
6888.00113 5.55386e-18
6889.00103 5.51650e-18
6890.00093 5.51633e-18
6891.00083 5.43483e-18
6892.00073 5.43466e-18
6893.00063 5.43449e-18
6894.00053 5.43433e-18
6895.00043 5.38685e-18
6896.00033 5.38668e-18
6897.00023 5.43382e-18
6898.00013 5.43366e-18
6899.00003 5.43349e-18
6899.99993 5.43332e-18
6900.99983 5.46899e-18
6901.99973 5.47496e-18
6902.99963 5.49979e-18
6903.99953 5.49962e-18
6904.99943 5.55004e-18
6905.99933 5.68763e-18
6906.99923 5.72055e-18
6907.99913 5.81899e-18
6908.99903 5.83313e-18
6909.99893 5.85836e-18
6910.99883 5.85817e-18
6911.99873 5.83259e-18
6912.99863 5.85781e-18
6913.99853 5.88277e-18
6914.99843 5.88259e-18
6915.99833 6.19805e-18
6916.99823 6.21062e-18
6917.99813 6.25434e-18
6918.99803 6.36302e-18
6919.99793 6.42491e-18
6920.99783 6.70100e-18
6921.99773 6.89828e-18
6922.99763 6.97750e-18
6923.99753 7.26945e-18
6924.99743 7.31838e-18
6925.99733 7.26900e-18
6926.99723 7.32293e-18
6927.99713 8.15620e-18
6928.99703 8.22370e-18
6929.99693 8.25412e-18
6930.99683 8.30578e-18
6931.99673 8.31366e-18
6932.99663 8.31730e-18
6933.99653 8.40692e-18
6934.99643 8.68578e-18
6935.99633 8.70035e-18
6936.99623 8.68524e-18
6937.99613 8.81318e-18
6938.99603 9.59315e-18
6939.99593 1.02789e-17
6940.99583 1.06800e-17
6941.99573 1.07553e-17
6942.99563 1.07701e-17
6943.99553 1.08753e-17
6944.99543 1.11302e-17
6945.99533 1.12078e-17
6946.99523 1.12905e-17
6947.99513 1.12901e-17
6949.00503 1.14711e-17
6950.00493 1.25874e-17
6951.00483 1.31045e-17
6952.00473 1.33381e-17
6953.00463 1.33396e-17
6954.00453 1.33392e-17
6955.00443 1.33982e-17
6956.00433 1.36438e-17
6957.00423 1.37225e-17
6958.00413 1.40952e-17
6959.00403 1.41811e-17
6960.00393 1.47643e-17
6961.00383 1.48905e-17
6962.00373 1.49199e-17
6963.00363 1.51694e-17
6964.00353 1.52128e-17
6965.00343 1.51685e-17
6966.00333 1.54577e-17
6967.00323 1.57592e-17
6968.00313 1.58730e-17
6969.00303 1.58967e-17
6970.00293 1.60584e-17
6971.00283 1.61662e-17
6972.00273 1.62737e-17
6973.00263 1.62732e-17
6974.00253 1.64033e-17
6975.00243 1.64828e-17
6976.00233 1.69652e-17
6977.00223 1.71532e-17
6978.00213 1.72994e-17
6979.00203 1.72988e-17
6980.00193 1.78596e-17
6981.00183 1.79160e-17
6982.00173 1.79399e-17
6983.00163 1.80270e-17
6984.00153 1.81212e-17
6985.00143 1.81207e-17
6986.00133 1.81201e-17
6987.00123 1.81196e-17
6988.00113 1.81190e-17
6989.00103 1.81130e-17
6990.00093 1.81125e-17
6991.00083 1.81119e-17
6992.00073 1.81167e-17
6993.00063 1.83098e-17
6994.00053 1.85843e-17
6995.00043 1.86501e-17
6996.00033 1.86495e-17
6997.00023 1.89328e-17
6998.00013 1.90735e-17
6999.00003 1.91005e-17
6999.99993 1.94727e-17
7000.99983 1.95365e-17
7001.99973 1.97595e-17
7002.99963 1.99101e-17
7003.99953 2.02173e-17
7004.99943 2.02167e-17
7005.99933 2.02161e-17
7006.99923 1.99076e-17
7007.99913 1.96300e-17
7008.99903 1.95518e-17
7009.99893 1.95310e-17
7010.99883 1.95304e-17
7011.99873 1.95298e-17
7012.99863 1.96270e-17
7013.99853 1.96423e-17
7014.99843 1.96697e-17
7015.99833 1.96691e-17
7016.99823 1.96404e-17
7017.99813 1.96239e-17
7018.99803 1.95457e-17
7019.99793 1.95451e-17
7020.99783 1.95445e-17
7021.99773 1.96374e-17
7022.99763 1.98408e-17
7023.99753 1.98820e-17
7024.99743 1.99662e-17
7025.99733 1.99656e-17
7026.99723 1.99649e-17
7027.99713 1.98377e-17
7028.99703 1.96611e-17
7029.99693 1.96605e-17
7030.99683 1.96599e-17
7031.99673 1.97088e-17
7032.99663 1.97082e-17
7033.99653 1.98340e-17
7034.99643 1.98334e-17
7035.99633 1.97063e-17
7036.99623 1.90104e-17
7037.99613 1.84975e-17
7038.99603 1.84470e-17
7039.99593 1.80016e-17
7040.99583 1.80010e-17
7041.99573 1.84452e-17
7042.99563 1.84447e-17
7043.99553 1.84441e-17
7044.99543 1.80648e-17
7045.99533 1.79982e-17
7047.00523 1.79624e-17
7048.00513 1.71098e-17
7049.00503 1.71092e-17
7050.00493 1.71087e-17
7051.00483 1.71082e-17
7052.00473 1.75594e-17
7053.00463 1.80603e-17
7054.00453 1.82484e-17
7055.00443 1.82479e-17
7056.00433 1.82473e-17
7057.00423 1.80580e-17
7058.00413 1.75561e-17
7059.00403 1.74112e-17
7060.00393 1.71033e-17
7061.00383 1.68266e-17
7062.00373 1.65471e-17
7063.00363 1.65305e-17
7064.00353 1.59088e-17
7065.00343 1.57715e-17
7066.00333 1.57710e-17
7067.00323 1.57686e-17
7068.00313 1.57386e-17
7069.00303 1.57039e-17
7070.00293 1.55964e-17
7071.00283 1.55399e-17
7072.00273 1.55395e-17
7073.00263 1.54635e-17
7074.00253 1.52914e-17
7075.00243 1.51834e-17
7076.00233 1.51830e-17
7077.00223 1.51825e-17
7078.00213 1.52732e-17
7079.00203 1.52727e-17
7080.00193 1.51810e-17
7081.00183 1.50623e-17
7082.00173 1.49742e-17
7083.00163 1.47424e-17
7084.00153 1.45454e-17
7085.00143 1.45160e-17
7086.00133 1.45155e-17
7087.00123 1.45151e-17
7088.00113 1.42375e-17
7089.00103 1.45142e-17
7090.00093 1.45137e-17
7091.00083 1.45133e-17
7092.00073 1.39844e-17
7093.00063 1.37704e-17
7094.00053 1.36840e-17
7095.00043 1.33944e-17
7096.00033 1.32020e-17
7097.00023 1.27644e-17
7098.00013 1.27121e-17
7099.00003 1.26797e-17
7099.99993 1.23987e-17
7100.99983 1.19805e-17
7101.99973 1.23979e-17
7102.99963 1.23975e-17
7103.99953 1.23972e-17
7104.99943 1.19790e-17
7105.99933 1.19470e-17
7106.99923 1.18274e-17
7107.99913 1.13926e-17
7108.99903 1.11307e-17
7109.99893 1.08503e-17
7110.99883 1.07382e-17
7111.99873 1.06423e-17
7112.99863 1.07376e-17
7113.99853 1.08490e-17
7114.99843 1.10168e-17
7115.99833 1.10164e-17
7116.99823 1.09082e-17
7117.99813 1.08740e-17
7118.99803 1.08472e-17
7119.99793 1.08237e-17
7120.99783 1.07348e-17
7121.99773 1.07227e-17
7122.99763 1.06386e-17
7123.99753 1.06327e-17
7124.99743 1.05409e-17
7125.99733 1.05197e-17
7126.99723 1.02474e-17
7127.99713 1.06370e-17
7128.99703 1.06555e-17
7129.99693 1.06552e-17
7130.99683 1.06549e-17
7131.99673 1.06545e-17
7132.99663 1.06542e-17
7133.99653 1.06538e-17
7134.99643 1.06535e-17
7135.99633 1.02445e-17
7136.99623 1.06528e-17
7137.99613 1.10658e-17
7138.99603 1.14252e-17
7139.99593 1.16027e-17
7140.99583 1.16846e-17
7141.99573 1.17948e-17
7142.99563 1.18594e-17
7143.99553 1.19245e-17
7144.99543 1.19241e-17
7145.99533 1.24387e-17
7146.99523 1.24383e-17
7147.99513 1.24379e-17
7149.00503 1.24375e-17
7150.00493 1.24371e-17
7151.00483 1.24367e-17
7152.00473 1.24363e-17
7153.00463 1.27464e-17
7154.00453 1.30731e-17
7155.00443 1.30727e-17
7156.00433 1.30722e-17
7157.00423 1.30718e-17
7158.00413 1.30714e-17
7159.00403 1.30710e-17
7160.00393 1.30706e-17
7161.00383 1.30702e-17
7162.00373 1.27622e-17
7163.00363 1.29240e-17
7164.00353 1.30641e-17
7165.00343 1.31153e-17
7166.00333 1.34017e-17
7167.00323 1.34276e-17
7168.00313 1.36600e-17
7169.00303 1.38276e-17
7170.00293 1.38296e-17
7171.00283 1.39777e-17
7172.00273 1.39858e-17
7173.00263 1.39854e-17
7174.00253 1.39849e-17
7175.00243 1.38934e-17
7176.00233 1.36565e-17
7177.00223 1.36478e-17
7178.00213 1.36474e-17
7179.00203 1.36945e-17
7180.00193 1.36941e-17
7181.00183 1.36936e-17
7182.00173 1.37041e-17
7183.00163 1.36927e-17
7184.00153 1.36448e-17
7185.00143 1.34464e-17
7186.00133 1.33955e-17
7187.00123 1.33868e-17
7188.00113 1.32852e-17
7189.00103 1.32848e-17
7190.00093 1.31798e-17
7191.00083 1.31385e-17
7192.00073 1.31023e-17
7193.00063 1.28375e-17
7194.00053 1.27069e-17
7195.00043 1.27065e-17
7196.00033 1.27061e-17
7197.00023 1.27057e-17
7198.00013 1.28355e-17
7199.00003 1.30321e-17
7199.99993 1.31347e-17
7200.99983 1.31752e-17
7201.99973 1.32493e-17
7202.99963 1.31743e-17
7203.99953 1.31131e-17
7204.99943 1.31127e-17
7205.99933 1.32476e-17
7206.99923 1.34076e-17
7207.99913 1.35037e-17
7208.99903 1.37655e-17
7209.99893 1.38675e-17
7210.99883 1.41486e-17
7211.99873 1.42129e-17
7212.99863 1.43216e-17
7213.99853 1.43348e-17
7214.99843 1.44289e-17
7215.99833 1.43203e-17
7216.99823 1.44617e-17
7217.99813 1.44612e-17
7218.99803 1.46137e-17
7219.99793 1.46237e-17
7220.99783 1.46249e-17
7221.99773 1.46900e-17
7222.99763 1.48551e-17
7223.99753 1.49361e-17
7224.99743 1.50670e-17
7225.99733 1.51240e-17
7226.99723 1.50661e-17
7227.99713 1.48687e-17
7228.99703 1.48682e-17
7229.99693 1.51221e-17
7230.99683 1.51216e-17
7231.99673 1.51211e-17
7232.99663 1.51206e-17
7233.99653 1.52224e-17
7234.99643 1.52219e-17
7235.99633 1.51191e-17
7236.99623 1.48644e-17
7237.99613 1.46772e-17
7238.99603 1.45137e-17
7239.99593 1.45132e-17
7240.99583 1.45128e-17
7241.99573 1.45123e-17
7242.99563 1.45118e-17
7243.99553 1.44985e-17
7244.99543 1.44244e-17
7245.99533 1.43719e-17
7247.00523 1.44235e-17
7248.00513 1.43710e-17
7249.00503 1.44226e-17
7250.00493 1.44654e-17
7251.00483 1.44952e-17
7252.00473 1.45076e-17
7253.00463 1.45071e-17
7254.00453 1.45046e-17
7255.00443 1.44631e-17
7256.00433 1.45037e-17
7257.00423 1.45115e-17
7258.00413 1.45111e-17
7259.00403 1.45106e-17
7260.00393 1.48015e-17
7261.00383 1.48581e-17
7262.00373 1.48663e-17
7263.00363 1.48841e-17
7264.00353 1.49199e-17
7265.00343 1.49194e-17
7266.00333 1.48827e-17
7267.00323 1.48822e-17
7268.00313 1.50083e-17
7269.00303 1.51120e-17
7270.00293 1.51382e-17
7271.00283 1.51377e-17
7272.00273 1.51372e-17
7273.00263 1.52101e-17
7274.00253 1.52096e-17
7275.00243 1.52091e-17
7276.00233 1.52087e-17
7277.00223 1.52082e-17
7278.00213 1.52077e-17
7279.00203 1.52072e-17
7280.00193 1.52469e-17
7281.00183 1.49735e-17
7282.00173 1.43788e-17
7283.00163 1.38015e-17
7284.00153 1.38010e-17
7285.00143 1.37528e-17
7286.00133 1.33740e-17
7287.00123 1.33736e-17
7288.00113 1.32138e-17
7289.00103 1.32134e-17
7290.00093 1.32129e-17
7291.00083 1.33718e-17
7292.00073 1.33714e-17
7293.00063 1.35344e-17
7294.00053 1.37488e-17
7295.00043 1.37961e-17
7296.00033 1.37956e-17
7297.00023 1.38045e-17
7298.00013 1.39905e-17
7299.00003 1.40760e-17
7299.99993 1.40756e-17
7300.99983 1.40751e-17
7301.99973 1.43980e-17
7302.99963 1.44188e-17
7303.99953 1.44191e-17
7304.99943 1.44187e-17
7305.99933 1.44182e-17
7306.99923 1.43956e-17
7307.99913 1.43951e-17
7308.99903 1.43947e-17
