# wavelength flux
3300.0 1.0678156439340843e-12
3301.0 1.067468788560571e-12
3302.0 1.0671220458548123e-12
3303.0 1.0667754157802041e-12
3304.0 1.0664288983001676e-12
3305.0 1.0660824933781216e-12
3306.0 1.0657362009775125e-12
3307.0 1.0653900210617826e-12
3308.0 1.0650439535944016e-12
3309.0 1.0646979985388359e-12
3310.0 1.0643521558585748e-12
3311.0 1.0640064255171197e-12
3312.0 1.0636608074779728e-12
3313.0 1.063315301704663e-12
3314.0 1.0629699081607155e-12
3315.0 1.0626246268096832e-12
3316.0 1.0622794576151155e-12
3317.0 1.0619344005405886e-12
3318.0 1.0615894555496753e-12
3319.0 1.0612446226059756e-12
3320.0 1.0608999016730863e-12
3321.0 1.060555292714627e-12
3322.0 1.0602107956942297e-12
3323.0 1.0598664105755257e-12
3324.0 1.0595221373221747e-12
3325.0 1.0591779758978324e-12
3326.0 1.0588339262661812e-12
3327.0 1.0584899883909004e-12
3328.0 1.0581461622356965e-12
3329.0 1.0578024477642718e-12
3330.0 1.0574588449403567e-12
3331.0 1.0571153537276777e-12
3332.0 1.0567719740899839e-12
3333.0 1.0564287059910372e-12
3334.0 1.0560855493945992e-12
3335.0 1.055742504264458e-12
3336.0 1.0553995705643998e-12
3337.0 1.0550567482582366e-12
3338.0 1.054714037309777e-12
3339.0 1.054371437682857e-12
3340.0 1.0540289493413085e-12
3341.0 1.0536865722489911e-12
3342.0 1.053344306369761e-12
3343.0 1.0530021516674999e-12
3344.0 1.0526601081060882e-12
3345.0 1.0523181756494275e-12
3346.0 1.051976354261432e-12
3347.0 1.0516346439060165e-12
3348.0 1.0512930445471224e-12
3349.0 1.0509515561486875e-12
3350.0 1.0506101786746762e-12
3351.0 1.0502689120890503e-12
3352.0 1.0499277563557976e-12
3353.0 1.0495867114389035e-12
3354.0 1.049245777302379e-12
3355.0 1.0489049539102323e-12
3356.0 1.0485642412264945e-12
3357.0 1.048223639215209e-12
3358.0 1.047883147840418e-12
3359.0 1.0475427670661925e-12
3360.0 1.0472024968565986e-12
3361.0 1.0468623371757296e-12
3362.0 1.0465222879876755e-12
3363.0 1.0461823492565527e-12
3364.0 1.0458425209464747e-12
3365.0 1.0455028030215815e-12
3366.0 1.0451631954460094e-12
3367.0 1.044823698183918e-12
3368.0 1.0444843111994785e-12
3369.0 1.0441450344568622e-12
3370.0 1.0438058679202672e-12
3371.0 1.0434668115538883e-12
3372.0 1.0431278653219473e-12
3373.0 1.0427890291886618e-12
3374.0 1.0424503031182763e-12
3375.0 1.0421116870750324e-12
3376.0 1.041773181023198e-12
3377.0 1.0414347849270374e-12
3378.0 1.041096498750841e-12
3379.0 1.0407583224588979e-12
3380.0 1.0404202560155176e-12
3381.0 1.0400822993850228e-12
3382.0 1.0397444525317354e-12
3383.0 1.0394067154200047e-12
3384.0 1.0390690880141766e-12
3385.0 1.038731570278623e-12
3386.0 1.0383941621777125e-12
3387.0 1.038056863675841e-12
3388.0 1.0377196747374e-12
3389.0 1.0373825953268082e-12
3390.0 1.0370456254084806e-12
3391.0 1.036708764946855e-12
3392.0 1.0363720139063808e-12
3393.0 1.0360353722515079e-12
3394.0 1.0356988399467123e-12
3395.0 1.035362416956467e-12
3396.0 1.035026103245271e-12
3397.0 1.0346898987776206e-12
3398.0 1.0343538035180378e-12
3399.0 1.034017817431042e-12
3400.0 1.0336819404811781e-12
3401.0 1.0333461726329886e-12
3402.0 1.0330105138510377e-12
3403.0 1.0326749640999021e-12
3404.0 1.032339523344158e-12
3405.0 1.0320041915484086e-12
3406.0 1.0316689686772531e-12
3407.0 1.0313338546953179e-12
3408.0 1.030998849567225e-12
3409.0 1.030663953257624e-12
3410.0 1.0303291657311598e-12
3411.0 1.0299944869525047e-12
3412.0 1.0296599168863272e-12
3413.0 1.0293254554973182e-12
3414.0 1.0289911027501801e-12
3415.0 1.0286568586096163e-12
3416.0 1.0283227230403558e-12
3417.0 1.0279886960071243e-12
3418.0 1.027654777474674e-12
3419.0 1.0273209674077541e-12
3420.0 1.0269872657711387e-12
3421.0 1.0266536725296004e-12
3422.0 1.0263201876479364e-12
3423.0 1.0259868110909416e-12
3424.0 1.025653542823437e-12
3425.0 1.0253203828102393e-12
3426.0 1.024987331016189e-12
3427.0 1.0246543874061374e-12
3428.0 1.024321551944936e-12
3429.0 1.0239888245974626e-12
3430.0 1.0236562053285918e-12
3431.0 1.0233236941032241e-12
3432.0 1.0229912908862577e-12
3433.0 1.0226589956426147e-12
3434.0 1.0223268083372161e-12
3435.0 1.0219947289350081e-12
3436.0 1.0216627574009335e-12
3437.0 1.0213308936999576e-12
3438.0 1.0209991377970573e-12
3439.0 1.0206674896572094e-12
3440.0 1.020335949245417e-12
3441.0 1.0200045165266804e-12
3442.0 1.0196731914660253e-12
3443.0 1.0193419740284736e-12
3444.0 1.019010864179075e-12
3445.0 1.018679861882874e-12
3446.0 1.018348967104942e-12
3447.0 1.0180181798103472e-12
3448.0 1.0176874999641799e-12
3449.0 1.0173569275315417e-12
3450.0 1.0170264624775342e-12
3451.0 1.0166961047672859e-12
3452.0 1.0163658543659217e-12
3453.0 1.0160357112385915e-12
3454.0 1.0157056753504431e-12
3455.0 1.0153757466666496e-12
3456.0 1.0150459251523814e-12
3457.0 1.014716210772834e-12
3458.0 1.0143866034931994e-12
3459.0 1.014057103278694e-12
3460.0 1.0137277100945425e-12
3461.0 1.013398423905972e-12
3462.0 1.013069244678235e-12
3463.0 1.0127401723765802e-12
3464.0 1.0124112069662829e-12
3465.0 1.0120823484126148e-12
3466.0 1.011753596680873e-12
3467.0 1.0114249517363522e-12
3468.0 1.011096413544372e-12
3469.0 1.0107679820702495e-12
3470.0 1.0104396572793272e-12
3471.0 1.0101114391369444e-12
3472.0 1.0097833276084624e-12
3473.0 1.009455322659254e-12
3474.0 1.0091274242546924e-12
3475.0 1.008799632360176e-12
3476.0 1.0084719469411008e-12
3477.0 1.008144367962888e-12
3478.0 1.0078168953909556e-12
3479.0 1.0074895291907471e-12
3480.0 1.0071622693277035e-12
3481.0 1.0068351157672905e-12
3482.0 1.0065080684749715e-12
3483.0 1.0061811274162312e-12
3484.0 1.005854292556566e-12
3485.0 1.0055275638614723e-12
3486.0 1.0052009412964722e-12
3487.0 1.0048744248270852e-12
3488.0 1.0045480144188557e-12
3489.0 1.0042217100373251e-12
3490.0 1.0038955116480603e-12
3491.0 1.0035694192166254e-12
3492.0 1.0032434327086095e-12
3493.0 1.0029175520895987e-12
3494.0 1.0025917773252014e-12
3495.0 1.0022661083810367e-12
3496.0 1.0019405452227246e-12
3497.0 1.00161508781591e-12
3498.0 1.0012897361262349e-12
3499.0 1.000964490119367e-12
3500.0 1.0006393497609705e-12
3501.0 1.0003143150167355e-12
3502.0 9.999893858523482e-13
3503.0 9.996645622335212e-13
3504.0 9.993398441259635e-13
3505.0 9.990152314954053e-13
3506.0 9.986907243075887e-13
3507.0 9.98366322528257e-13
3508.0 9.980420261231764e-13
3509.0 9.977178350581126e-13
3510.0 9.973937492988554e-13
3511.0 9.970697688111911e-13
3512.0 9.967458935609327e-13
3513.0 9.96422123513889e-13
3514.0 9.960984586358941e-13
3515.0 9.957748988927797e-13
3516.0 9.954514442504023e-13
3517.0 9.951280946746152e-13
3518.0 9.948048501312934e-13
3519.0 9.944817105863237e-13
3520.0 9.941586760055928e-13
3521.0 9.938357463550126e-13
3522.0 9.93512921600492e-13
3523.0 9.93190201707965e-13
3524.0 9.928675866433632e-13
3525.0 9.925450763726422e-13
3526.0 9.922226708617555e-13
3527.0 9.919003700766814e-13
3528.0 9.915781739833953e-13
3529.0 9.91256082547894e-13
3530.0 9.909340957361859e-13
3531.0 9.90612213514279e-13
3532.0 9.90290435848207e-13
3533.0 9.89968762704001e-13
3534.0 9.896471940477157e-13
3535.0 9.893257298454043e-13
3536.0 9.89004370063144e-13
3537.0 9.886831146670102e-13
3538.0 9.883619636231024e-13
3539.0 9.88040916897517e-13
3540.0 9.877199744563726e-13
3541.0 9.87399136265798e-13
3542.0 9.87078402291923e-13
3543.0 9.867577725009028e-13
3544.0 9.864372468588889e-13
3545.0 9.86116825332058e-13
3546.0 9.857965078865836e-13
3547.0 9.854762944886649e-13
3548.0 9.851561851044969e-13
3549.0 9.848361797003012e-13
3550.0 9.845162782422946e-13
3551.0 9.8419648069672e-13
3552.0 9.83876787029817e-13
3553.0 9.835571972078469e-13
3554.0 9.83237711197081e-13
3555.0 9.829183289637924e-13
3556.0 9.825990504742782e-13
3557.0 9.82279875694833e-13
3558.0 9.81960804591776e-13
3559.0 9.816418371314233e-13
3560.0 9.813229732801164e-13
3561.0 9.810042130041928e-13
3562.0 9.806855562700163e-13
3563.0 9.803670030439466e-13
3564.0 9.800485532923653e-13
3565.0 9.79730206981664e-13
3566.0 9.794119640782363e-13
3567.0 9.790938245484993e-13
3568.0 9.787757883588681e-13
3569.0 9.784578554757818e-13
3570.0 9.781400258656767e-13
3571.0 9.778222994950144e-13
3572.0 9.775046763302531e-13
3573.0 9.771871563378754e-13
3574.0 9.768697394843616e-13
3575.0 9.765524257362133e-13
3576.0 9.762352150599424e-13
3577.0 9.759181074220613e-13
3578.0 9.756011027891077e-13
3579.0 9.752842011276163e-13
3580.0 9.749674024041459e-13
3581.0 9.746507065852526e-13
3582.0 9.743341136375176e-13
3583.0 9.740176235275185e-13
3584.0 9.737012362218582e-13
3585.0 9.733849516871361e-13
3586.0 9.730687698899727e-13
3587.0 9.727526907970002e-13
3588.0 9.724367143748507e-13
3589.0 9.721208405901803e-13
3590.0 9.718050694096437e-13
3591.0 9.714894007999188e-13
3592.0 9.711738347276813e-13
3593.0 9.708583711596315e-13
3594.0 9.705430100624655e-13
3595.0 9.702277514029063e-13
3596.0 9.69912595147672e-13
3597.0 9.695975412635058e-13
3598.0 9.692825897171483e-13
3599.0 9.689677404753614e-13
3600.0 9.686529935049167e-13
3601.0 9.683383487725871e-13
3602.0 9.680238062451703e-13
3603.0 9.677093658894602e-13
3604.0 9.673950276722759e-13
3605.0 9.670807915604333e-13
3606.0 9.66766657520773e-13
3607.0 9.664526255201321e-13
3608.0 9.66138695525373e-13
3609.0 9.65824867503354e-13
3610.0 9.65511141420956e-13
3611.0 9.651975172450692e-13
3612.0 9.648839949425855e-13
3613.0 9.645705744804202e-13
3614.0 9.642572558254861e-13
3615.0 9.639440389447208e-13
3616.0 9.636309238050582e-13
3617.0 9.633179103734572e-13
3618.0 9.630049986168733e-13
3619.0 9.62692188502287e-13
3620.0 9.623794799966757e-13
3621.0 9.62066873067037e-13
3622.0 9.617543676803805e-13
3623.0 9.614419638037153e-13
3624.0 9.61129661404075e-13
3625.0 9.608174604484904e-13
3626.0 9.605053609040173e-13
3627.0 9.601933627377077e-13
3628.0 9.598814659166374e-13
3629.0 9.595696704078811e-13
3630.0 9.592579761785366e-13
3631.0 9.58946383195698e-13
3632.0 9.586348914264825e-13
3633.0 9.58323500838016e-13
3634.0 9.580122113974257e-13
3635.0 9.57701023071863e-13
3636.0 9.573899358284764e-13
3637.0 9.570789496344387e-13
3638.0 9.567680644569194e-13
3639.0 9.564572802631127e-13
3640.0 9.561465970202099e-13
3641.0 9.558360146954256e-13
3642.0 9.55525533255973e-13
3643.0 9.552151526690886e-13
3644.0 9.54904872902006e-13
3645.0 9.545946939219796e-13
3646.0 9.54284615696275e-13
3647.0 9.539746381921572e-13
3648.0 9.536647613769166e-13
3649.0 9.533549852178396e-13
3650.0 9.530453096822377e-13
3651.0 9.527357347374187e-13
3652.0 9.52426260350715e-13
3653.0 9.521168864894563e-13
3654.0 9.518076131209957e-13
3655.0 9.51498440212684e-13
3656.0 9.51189367731892e-13
3657.0 9.508803956460027e-13
3658.0 9.505715239223977e-13
3659.0 9.50262752528484e-13
3660.0 9.499540814316644e-13
3661.0 9.496455105993673e-13
3662.0 9.493370399990174e-13
3663.0 9.490286695980634e-13
3664.0 9.48720399363951e-13
3665.0 9.484122292641507e-13
3666.0 9.481041592661289e-13
3667.0 9.477961893373738e-13
3668.0 9.474883194453837e-13
3669.0 9.471805495576572e-13
3670.0 9.46872879641717e-13
3671.0 9.46565309665083e-13
3672.0 9.462578395952996e-13
3673.0 9.45950469399907e-13
3674.0 9.456431990464706e-13
3675.0 9.453360285025523e-13
3676.0 9.450289577357382e-13
3677.0 9.447219867136113e-13
3678.0 9.44415115403779e-13
3679.0 9.44108343773845e-13
3680.0 9.438016717914343e-13
3681.0 9.43495099424182e-13
3682.0 9.431886266397242e-13
3683.0 9.428822534057205e-13
3684.0 9.425759796898274e-13
3685.0 9.422698054597253e-13
3686.0 9.419637306830928e-13
3687.0 9.416577553276308e-13
3688.0 9.413518793610385e-13
3689.0 9.410461027510382e-13
3690.0 9.4074042546535e-13
3691.0 9.404348474717138e-13
3692.0 9.401293687378807e-13
3693.0 9.398239892316016e-13
3694.0 9.395187089206514e-13
3695.0 9.392135277728027e-13
3696.0 9.38908445755851e-13
3697.0 9.386034628375897e-13
3698.0 9.382985789858356e-13
3699.0 9.379937941684024e-13
3700.0 9.37689108353128e-13
3701.0 9.373845215078474e-13
3702.0 9.370800336004162e-13
3703.0 9.367756445986997e-13
3704.0 9.364713544705644e-13
3705.0 9.361671631838999e-13
3706.0 9.358630707065937e-13
3707.0 9.355590770065566e-13
3708.0 9.352551820516968e-13
3709.0 9.349513858099452e-13
3710.0 9.34647688249231e-13
3711.0 9.34344089337507e-13
3712.0 9.340405890427224e-13
3713.0 9.337371873328475e-13
3714.0 9.334338841758624e-13
3715.0 9.331306795397482e-13
3716.0 9.328275733925098e-13
3717.0 9.32524565702148e-13
3718.0 9.322216564366886e-13
3719.0 9.31918845564154e-13
3720.0 9.316161330525903e-13
3721.0 9.313135188700406e-13
3722.0 9.310110029845715e-13
3723.0 9.307085853642475e-13
3724.0 9.304062659771558e-13
3725.0 9.301040447913814e-13
3726.0 9.29801921775029e-13
3727.0 9.294998968962143e-13
3728.0 9.291979701230525e-13
3729.0 9.288961414236836e-13
3730.0 9.285944107662437e-13
3731.0 9.28292778118893e-13
3732.0 9.279912434497889e-13
3733.0 9.276898067271117e-13
3734.0 9.273884679190396e-13
3735.0 9.270872269937741e-13
3736.0 9.267860839195135e-13
3737.0 9.264850386644766e-13
3738.0 9.261840911968928e-13
3739.0 9.258832414849914e-13
3740.0 9.255824894970254e-13
3741.0 9.25281835201245e-13
3742.0 9.249812785659236e-13
3743.0 9.246808195593325e-13
3744.0 9.243804581497659e-13
3745.0 9.240801943055145e-13
3746.0 9.237800279948942e-13
3747.0 9.234799591862163e-13
3748.0 9.23179987847813e-13
3749.0 9.22880113948027e-13
3750.0 9.22580337455201e-13
3751.0 9.222806583377014e-13
3752.0 9.21981076563891e-13
3753.0 9.216815921021577e-13
3754.0 9.213822049208847e-13
3755.0 9.210829149884798e-13
3756.0 9.207837222733471e-13
3757.0 9.204846267439146e-13
3758.0 9.201856283686077e-13
3759.0 9.19886727115871e-13
3760.0 9.195879229541601e-13
3761.0 9.19289215851931e-13
3762.0 9.189906057776626e-13
3763.0 9.186920926998312e-13
3764.0 9.183936765869363e-13
3765.0 9.18095357407475e-13
3766.0 9.17797135129967e-13
3767.0 9.174990097229294e-13
3768.0 9.172009811549034e-13
3769.0 9.16903049394426e-13
3770.0 9.166052144100585e-13
3771.0 9.163074761703591e-13
3772.0 9.160098346439052e-13
3773.0 9.15712289799286e-13
3774.0 9.154148416050898e-13
3775.0 9.151174900299287e-13
3776.0 9.148202350424115e-13
3777.0 9.14523076611171e-13
3778.0 9.142260147048363e-13
3779.0 9.139290492920608e-13
3780.0 9.136321803414938e-13
3781.0 9.133354078218086e-13
3782.0 9.130387317016755e-13
3783.0 9.127421519497847e-13
3784.0 9.124456685348362e-13
3785.0 9.121492814255314e-13
3786.0 9.118529905905939e-13
3787.0 9.11556795998745e-13
3788.0 9.112606976187287e-13
3789.0 9.109646954192867e-13
3790.0 9.106687893691833e-13
3791.0 9.103729794371804e-13
3792.0 9.100772655920629e-13
3793.0 9.097816478026128e-13
3794.0 9.094861260376319e-13
3795.0 9.091907002659322e-13
3796.0 9.088953704563261e-13
3797.0 9.086001365776495e-13
3798.0 9.083049985987346e-13
3799.0 9.080099564884374e-13
3800.0 9.077150102156109e-13
3801.0 9.074201597491311e-13
3802.0 9.071254050578707e-13
3803.0 9.068307461107268e-13
3804.0 9.06536182876592e-13
3805.0 9.062417153243797e-13
3806.0 9.059473434230133e-13
3807.0 9.056530671414166e-13
3808.0 9.05358886448536e-13
3809.0 9.050648013133154e-13
3810.0 9.047708117047219e-13
3811.0 9.044769175917192e-13
3812.0 9.041831189432947e-13
3813.0 9.038894157284326e-13
3814.0 9.035958079161396e-13
3815.0 9.033022954754205e-13
3816.0 9.030088783753024e-13
3817.0 9.027155565848098e-13
3818.0 9.024223300729872e-13
3819.0 9.021291988088884e-13
3820.0 9.018361627615682e-13
3821.0 9.015432219001044e-13
3822.0 9.012503761935714e-13
3823.0 9.00957625611067e-13
3824.0 9.006649701216862e-13
3825.0 9.003724096945466e-13
3826.0 9.000799442987633e-13
3827.0 8.997875739034737e-13
3828.0 8.99495298477813e-13
3829.0 8.99203117990936e-13
3830.0 8.989110324120068e-13
3831.0 8.986190417101912e-13
3832.0 8.983271458546765e-13
3833.0 8.980353448146482e-13
3834.0 8.977436385593137e-13
3835.0 8.974520270578786e-13
3836.0 8.971605102795703e-13
3837.0 8.968690881936144e-13
3838.0 8.965777607692586e-13
3839.0 8.962865279757476e-13
3840.0 8.959953897823467e-13
3841.0 8.9570434615833e-13
3842.0 8.95413397072973e-13
3843.0 8.951225424955732e-13
3844.0 8.948317823954256e-13
3845.0 8.945411167418479e-13
3846.0 8.942505455041553e-13
3847.0 8.939600686516856e-13
3848.0 8.936696861537729e-13
3849.0 8.933793979797757e-13
3850.0 8.93089204099048e-13
3851.0 8.927991044809679e-13
3852.0 8.925090990949099e-13
3853.0 8.922191879102682e-13
3854.0 8.919293708964467e-13
3855.0 8.916396480228503e-13
3856.0 8.913500192589063e-13
3857.0 8.910604845740384e-13
3858.0 8.907710439376942e-13
3859.0 8.904816973193179e-13
3860.0 8.901924446883765e-13
3861.0 8.899032860143338e-13
3862.0 8.896142212666766e-13
3863.0 8.893252504148892e-13
3864.0 8.890363734284745e-13
3865.0 8.887475902769461e-13
3866.0 8.884589009298176e-13
3867.0 8.881703053566253e-13
3868.0 8.878818035269025e-13
3869.0 8.875933954102054e-13
3870.0 8.873050809760872e-13
3871.0 8.870168601941238e-13
3872.0 8.867287330338882e-13
3873.0 8.864406994649758e-13
3874.0 8.861527594569797e-13
3875.0 8.858649129795119e-13
3876.0 8.855771600021945e-13
3877.0 8.852895004946498e-13
3878.0 8.850019344265229e-13
3879.0 8.847144617674559e-13
3880.0 8.844270824871135e-13
3881.0 8.841397965551574e-13
3882.0 8.838526039412721e-13
3883.0 8.835655046151391e-13
3884.0 8.832784985464626e-13
3885.0 8.829915857049436e-13
3886.0 8.827047660603029e-13
3887.0 8.824180395822708e-13
3888.0 8.821314062405782e-13
3889.0 8.818448660049784e-13
3890.0 8.815584188452214e-13
3891.0 8.812720647310806e-13
3892.0 8.809858036323254e-13
3893.0 8.806996355187491e-13
3894.0 8.804135603601413e-13
3895.0 8.801275781263137e-13
3896.0 8.798416887870756e-13
3897.0 8.795558923122594e-13
3898.0 8.792701886716934e-13
3899.0 8.789845778352262e-13
3900.0 8.786990597727156e-13
3901.0 8.7841363445402e-13
3902.0 8.781283018490199e-13
3903.0 8.778430619275935e-13
3904.0 8.775579146596409e-13
3905.0 8.772728600150598e-13
3906.0 8.7698789796377e-13
3907.0 8.767030284756881e-13
3908.0 8.764182515207539e-13
3909.0 8.761335670689039e-13
3910.0 8.758489750900939e-13
3911.0 8.755644755542892e-13
3912.0 8.752800684314557e-13
3913.0 8.749957536915818e-13
3914.0 8.747115313046527e-13
3915.0 8.744274012406761e-13
3916.0 8.741433634696566e-13
3917.0 8.738594179616218e-13
3918.0 8.735755646865959e-13
3919.0 8.732918036146251e-13
3920.0 8.730081347157537e-13
3921.0 8.727245579600445e-13
3922.0 8.7244107331757e-13
3923.0 8.721576807584036e-13
3924.0 8.718743802526399e-13
3925.0 8.715911717703718e-13
3926.0 8.713080552817137e-13
3927.0 8.710250307567779e-13
3928.0 8.70742098165698e-13
3929.0 8.704592574786053e-13
3930.0 8.701765086656536e-13
3931.0 8.698938516969931e-13
3932.0 8.696112865427941e-13
3933.0 8.693288131732356e-13
3934.0 8.690464315584971e-13
3935.0 8.687641416687813e-13
3936.0 8.684819434742866e-13
3937.0 8.681998369452346e-13
3938.0 8.679178220518437e-13
3939.0 8.676358987643546e-13
3940.0 8.673540670530051e-13
3941.0 8.670723268880548e-13
3942.0 8.667906782397613e-13
3943.0 8.665091210784037e-13
3944.0 8.662276553742584e-13
3945.0 8.659462810976211e-13
3946.0 8.656649982187963e-13
3947.0 8.6538380670809e-13
3948.0 8.651027065358295e-13
3949.0 8.648216976723398e-13
3950.0 8.645407800879671e-13
3951.0 8.642599537530556e-13
3952.0 8.639792186379717e-13
3953.0 8.636985747130781e-13
3954.0 8.634180219487604e-13
3955.0 8.631375603154012e-13
3956.0 8.628571897834016e-13
3957.0 8.625769103231727e-13
3958.0 8.622967219051261e-13
3959.0 8.620166244996948e-13
3960.0 8.617366180773097e-13
3961.0 8.614567026084231e-13
3962.0 8.61176878063485e-13
3963.0 8.608971444129668e-13
3964.0 8.606175016273379e-13
3965.0 8.603379496770889e-13
3966.0 8.60058488532708e-13
3967.0 8.597791181647027e-13
3968.0 8.594998385435886e-13
3969.0 8.592206496398834e-13
3970.0 8.589415514241257e-13
3971.0 8.586625438668514e-13
3972.0 8.583836269386188e-13
3973.0 8.581048006099826e-13
3974.0 8.578260648515203e-13
3975.0 8.57547419633806e-13
3976.0 8.572688649274359e-13
3977.0 8.569904007030035e-13
3978.0 8.567120269311211e-13
3979.0 8.564337435824104e-13
3980.0 8.561555506274933e-13
3981.0 8.558774480370137e-13
3982.0 8.55599435781613e-13
3983.0 8.553215138319542e-13
3984.0 8.550436821586973e-13
3985.0 8.547659407325242e-13
3986.0 8.544882895241149e-13
3987.0 8.542107285041699e-13
3988.0 8.539332576433876e-13
3989.0 8.53655876912488e-13
3990.0 8.533785862821887e-13
3991.0 8.531013857232259e-13
3992.0 8.528242752063447e-13
3993.0 8.525472547022913e-13
3994.0 8.522703241818333e-13
3995.0 8.519934836157355e-13
3996.0 8.517167329747847e-13
3997.0 8.51440072229765e-13
3998.0 8.511635013514812e-13
3999.0 8.50887020310737e-13
4000.0 8.506106290783563e-13
4001.0 8.503343276251612e-13
4002.0 8.500581159219924e-13
4003.0 8.497819939396997e-13
4004.0 8.49505961649133e-13
4005.0 8.492300190211645e-13
4006.0 8.489541660266636e-13
4007.0 8.486784026365207e-13
4008.0 8.484027288216241e-13
4009.0 8.481271445528836e-13
4010.0 8.478516498012062e-13
4011.0 8.475762445375202e-13
4012.0 8.47300928732752e-13
4013.0 8.47025702357846e-13
4014.0 8.46750565383756e-13
4015.0 8.46475517781436e-13
4016.0 8.462005595218623e-13
4017.0 8.459256905760076e-13
4018.0 8.456509109148668e-13
4019.0 8.453762205094318e-13
4020.0 8.451016193307159e-13
4021.0 8.448271073497304e-13
4022.0 8.44552684537507e-13
4023.0 8.442783508650758e-13
4024.0 8.44004106303488e-13
4025.0 8.437299508237917e-13
4026.0 8.434558843970541e-13
4027.0 8.431819069943515e-13
4028.0 8.429080185867602e-13
4029.0 8.42634219145379e-13
4030.0 8.423605086413029e-13
4031.0 8.420868870456486e-13
4032.0 8.418133543295306e-13
4033.0 8.415399104640849e-13
4034.0 8.412665554204439e-13
4035.0 8.409932891697622e-13
4036.0 8.407201116831917e-13
4037.0 8.404470229319024e-13
4038.0 8.401740228870739e-13
4039.0 8.399011115198858e-13
4040.0 8.396282888015399e-13
4041.0 8.39355554703234e-13
4042.0 8.390829091961885e-13
4043.0 8.388103522516207e-13
4044.0 8.385378838407688e-13
4045.0 8.382655039348694e-13
4046.0 8.379932125051795e-13
4047.0 8.377210095229534e-13
4048.0 8.374488949594647e-13
4049.0 8.371768687859952e-13
4050.0 8.369049309738279e-13
4051.0 8.366330814942666e-13
4052.0 8.363613203186128e-13
4053.0 8.360896474181888e-13
4054.0 8.358180627643145e-13
4055.0 8.355465663283317e-13
4056.0 8.352751580815782e-13
4057.0 8.350038379954145e-13
4058.0 8.347326060411975e-13
4059.0 8.344614621903026e-13
4060.0 8.341904064141148e-13
4061.0 8.339194386840188e-13
4062.0 8.336485589714212e-13
4063.0 8.33377767247726e-13
4064.0 8.331070634843574e-13
4065.0 8.328364476527381e-13
4066.0 8.325659197243114e-13
4067.0 8.322954796705181e-13
4068.0 8.320251274628207e-13
4069.0 8.317548630726779e-13
4070.0 8.314846864715704e-13
4071.0 8.312145976309763e-13
4072.0 8.309445965223918e-13
4073.0 8.306746831173219e-13
4074.0 8.304048573872724e-13
4075.0 8.301351193037702e-13
4076.0 8.298654688383397e-13
4077.0 8.295959059625258e-13
4078.0 8.293264306478718e-13
4079.0 8.290570428659408e-13
4080.0 8.287877425882945e-13
4081.0 8.285185297865148e-13
4082.0 8.282494044321818e-13
4083.0 8.279803664968929e-13
4084.0 8.277114159522552e-13
4085.0 8.274425527698763e-13
4086.0 8.271737769213842e-13
4087.0 8.26905088378405e-13
4088.0 8.266364871125852e-13
4089.0 8.263679730955695e-13
4090.0 8.260995462990227e-13
4091.0 8.258312066946078e-13
4092.0 8.25562954254008e-13
4093.0 8.252947889489048e-13
4094.0 8.250267107509971e-13
4095.0 8.24758719631993e-13
4096.0 8.244908155636014e-13
4097.0 8.242229985175519e-13
4098.0 8.239552684655715e-13
4099.0 8.23687625379408e-13
4100.0 8.234200692308067e-13
4101.0 8.231525999915345e-13
4102.0 8.228852176333544e-13
4103.0 8.226179221280515e-13
4104.0 8.22350713447408e-13
4105.0 8.220835915632235e-13
4106.0 8.218165564473073e-13
4107.0 8.215496080714692e-13
4108.0 8.212827464075396e-13
4109.0 8.210159714273462e-13
4110.0 8.20749283102738e-13
4111.0 8.204826814055606e-13
4112.0 8.202161663076818e-13
4113.0 8.199497377809659e-13
4114.0 8.196833957972976e-13
4115.0 8.194171403285603e-13
4116.0 8.191509713466574e-13
4117.0 8.188848888234897e-13
4118.0 8.186188927309763e-13
4119.0 8.18352983041045e-13
4120.0 8.180871597256243e-13
4121.0 8.178214227566635e-13
4122.0 8.175557721061091e-13
4123.0 8.172902077459285e-13
4124.0 8.170247296480865e-13
4125.0 8.167593377845687e-13
4126.0 8.164940321273581e-13
4127.0 8.162288126484586e-13
4128.0 8.159636793198712e-13
4129.0 8.156986321136153e-13
4130.0 8.154336710017188e-13
4131.0 8.151687959562104e-13
4132.0 8.149040069491391e-13
4133.0 8.146393039525518e-13
4134.0 8.14374686938516e-13
4135.0 8.141101558790963e-13
4136.0 8.138457107463781e-13
4137.0 8.135813515124447e-13
4138.0 8.133170781493997e-13
4139.0 8.130528906293442e-13
4140.0 8.127887889243969e-13
4141.0 8.125247730066859e-13
4142.0 8.122608428483394e-13
4143.0 8.119969984215065e-13
4144.0 8.117332396983334e-13
4145.0 8.114695666509875e-13
4146.0 8.112059792516328e-13
4147.0 8.109424774724548e-13
4148.0 8.106790612856358e-13
4149.0 8.104157306633792e-13
4150.0 8.101524855778856e-13
4151.0 8.098893260013761e-13
4152.0 8.096262519060693e-13
4153.0 8.09363263264202e-13
4154.0 8.091003600480192e-13
4155.0 8.08837542229767e-13
4156.0 8.085748097817114e-13
4157.0 8.083121626761163e-13
4158.0 8.080496008852663e-13
4159.0 8.077871243814428e-13
4160.0 8.075247331369484e-13
4161.0 8.072624271240827e-13
4162.0 8.070002063151662e-13
4163.0 8.067380706825166e-13
4164.0 8.064760201984695e-13
4165.0 8.062140548353692e-13
4166.0 8.059521745655603e-13
4167.0 8.056903793614085e-13
4168.0 8.05428669195276e-13
4169.0 8.051670440395463e-13
4170.0 8.049055038666001e-13
4171.0 8.046440486488383e-13
4172.0 8.043826783586598e-13
4173.0 8.041213929684837e-13
4174.0 8.038601924507263e-13
4175.0 8.03599076777822e-13
4176.0 8.033380459222134e-13
4177.0 8.030770998563445e-13
4178.0 8.028162385526788e-13
4179.0 8.025554619836775e-13
4180.0 8.022947701218227e-13
4181.0 8.020341629395933e-13
4182.0 8.017736404094892e-13
4183.0 8.01513202504007e-13
4184.0 8.012528491956649e-13
4185.0 8.009925804569769e-13
4186.0 8.007323962604762e-13
4187.0 8.004722965787039e-13
4188.0 8.002122813842018e-13
4189.0 7.999523506495319e-13
4190.0 7.996925043472536e-13
4191.0 7.994327424499471e-13
4192.0 7.991730649301897e-13
4193.0 7.989134717605789e-13
4194.0 7.986539629137101e-13
4195.0 7.983945383621989e-13
4196.0 7.981351980786579e-13
4197.0 7.978759420357207e-13
4198.0 7.976167702060179e-13
4199.0 7.973576825621979e-13
4200.0 7.970986790769175e-13
4201.0 7.968397597228347e-13
4202.0 7.965809244726269e-13
4203.0 7.963221732989688e-13
4204.0 7.960635061745566e-13
4205.0 7.958049230720829e-13
4206.0 7.95546423964261e-13
4207.0 7.952880088238018e-13
4208.0 7.950296776234353e-13
4209.0 7.947714303358911e-13
4210.0 7.945132669339143e-13
4211.0 7.942551873902597e-13
4212.0 7.939971916776822e-13
4213.0 7.93739279768957e-13
4214.0 7.93481451636857e-13
4215.0 7.932237072541749e-13
4216.0 7.92966046593701e-13
4217.0 7.927084696282459e-13
4218.0 7.924509763306175e-13
4219.0 7.921935666736439e-13
4220.0 7.919362406301513e-13
4221.0 7.916789981729824e-13
4222.0 7.914218392749892e-13
4223.0 7.911647639090233e-13
4224.0 7.909077720479577e-13
4225.0 7.906508636646618e-13
4226.0 7.903940387320256e-13
4227.0 7.901372972229364e-13
4228.0 7.898806391103022e-13
4229.0 7.896240643670276e-13
4230.0 7.893675729660378e-13
4231.0 7.891111648802554e-13
4232.0 7.888548400826204e-13
4233.0 7.885985985460814e-13
4234.0 7.883424402435874e-13
4235.0 7.880863651481077e-13
4236.0 7.878303732326085e-13
4237.0 7.875744644700766e-13
4238.0 7.873186388334964e-13
4239.0 7.870628962958714e-13
4240.0 7.868072368302041e-13
4241.0 7.865516604095156e-13
4242.0 7.862961670068255e-13
4243.0 7.860407565951728e-13
4244.0 7.857854291475944e-13
4245.0 7.855301846371439e-13
4246.0 7.852750230368845e-13
4247.0 7.85019944319879e-13
4248.0 7.847649484592103e-13
4249.0 7.84510035427959e-13
4250.0 7.842552051992255e-13
4251.0 7.840004577461079e-13
4252.0 7.837457930417238e-13
4253.0 7.834912110591892e-13
4254.0 7.832367117716392e-13
4255.0 7.829822951522069e-13
4256.0 7.827279611740423e-13
4257.0 7.824737098103041e-13
4258.0 7.822195410341514e-13
4259.0 7.819654548187633e-13
4260.0 7.817114511373163e-13
4261.0 7.814575299630067e-13
4262.0 7.812036912690289e-13
4263.0 7.809499350285963e-13
4264.0 7.806962612149204e-13
4265.0 7.804426698012324e-13
4266.0 7.801891607607613e-13
4267.0 7.799357340667526e-13
4268.0 7.796823896924612e-13
4269.0 7.794291276111418e-13
4270.0 7.791759477960688e-13
4271.0 7.789228502205148e-13
4272.0 7.786698348577719e-13
4273.0 7.784169016811294e-13
4274.0 7.781640506638969e-13
4275.0 7.779112817793811e-13
4276.0 7.776585950009091e-13
4277.0 7.774059903018047e-13
4278.0 7.771534676554097e-13
4279.0 7.769010270350738e-13
4280.0 7.76648668414147e-13
4281.0 7.763963917659998e-13
4282.0 7.761441970639996e-13
4283.0 7.758920842815335e-13
4284.0 7.756400533919867e-13
4285.0 7.753881043687636e-13
4286.0 7.751362371852664e-13
4287.0 7.74884451814917e-13
4288.0 7.746327482311349e-13
4289.0 7.743811264073592e-13
4290.0 7.741295863170266e-13
4291.0 7.738781279335906e-13
4292.0 7.736267512305139e-13
4293.0 7.733754561812585e-13
4294.0 7.73124242759307e-13
4295.0 7.728731109381391e-13
4296.0 7.726220606912544e-13
4297.0 7.723710919921497e-13
4298.0 7.721202048143421e-13
4299.0 7.718693991313454e-13
4300.0 7.716186749166939e-13
4301.0 7.713680321439187e-13
4302.0 7.711174707865685e-13
4303.0 7.708669908181998e-13
4304.0 7.706165922123704e-13
4305.0 7.703662749426565e-13
4306.0 7.701160389826331e-13
4307.0 7.698658843058938e-13
4308.0 7.696158108860305e-13
4309.0 7.693658186966542e-13
4310.0 7.691159077113737e-13
4311.0 7.688660779038172e-13
4312.0 7.686163292476105e-13
4313.0 7.683666617163966e-13
4314.0 7.681170752838268e-13
4315.0 7.678675699235522e-13
4316.0 7.676181456092444e-13
4317.0 7.673688023145719e-13
4318.0 7.671195400132227e-13
4319.0 7.668703586788828e-13
4320.0 7.666212582852577e-13
4321.0 7.663722388060501e-13
4322.0 7.66123300214982e-13
4323.0 7.658744424857741e-13
4324.0 7.656256655921652e-13
4325.0 7.653769695078927e-13
4326.0 7.651283542067104e-13
4327.0 7.648798196623806e-13
4328.0 7.646313658486655e-13
4329.0 7.643829927393477e-13
4330.0 7.641347003082067e-13
4331.0 7.638864885290414e-13
4332.0 7.636383573756487e-13
4333.0 7.633903068218448e-13
4334.0 7.631423368414431e-13
4335.0 7.628944474082771e-13
4336.0 7.626466384961773e-13
4337.0 7.62398910078991e-13
4338.0 7.621512621305745e-13
4339.0 7.619036946247836e-13
4340.0 7.616562075354941e-13
4341.0 7.614088008365793e-13
4342.0 7.611614745019315e-13
4343.0 7.609142285054409e-13
4344.0 7.606670628210174e-13
4345.0 7.604199774225676e-13
4346.0 7.601729722840185e-13
4347.0 7.599260473792937e-13
4348.0 7.596792026823343e-13
4349.0 7.594324381670892e-13
4350.0 7.591857538075078e-13
4351.0 7.589391495775591e-13
4352.0 7.586926254512096e-13
4353.0 7.584461814024448e-13
4354.0 7.58199817405248e-13
4355.0 7.579535334336219e-13
4356.0 7.577073294615667e-13
4357.0 7.574612054631019e-13
4358.0 7.572151614122444e-13
4359.0 7.569691972830282e-13
4360.0 7.567233130494951e-13
4361.0 7.564775086856877e-13
4362.0 7.562317841656674e-13
4363.0 7.559861394634937e-13
4364.0 7.557405745532451e-13
4365.0 7.554950894089977e-13
4366.0 7.552496840048467e-13
4367.0 7.550043583148853e-13
4368.0 7.547591123132255e-13
4369.0 7.545139459739769e-13
4370.0 7.542688592712689e-13
4371.0 7.54023852179228e-13
4372.0 7.53778924671997e-13
4373.0 7.535340767237274e-13
4374.0 7.532893083085716e-13
4375.0 7.530446194006999e-13
4376.0 7.528000099742812e-13
4377.0 7.525554800035032e-13
4378.0 7.523110294625515e-13
4379.0 7.520666583256301e-13
4380.0 7.518223665669416e-13
4381.0 7.51578154160707e-13
4382.0 7.513340210811454e-13
4383.0 7.510899673024921e-13
4384.0 7.508459927989907e-13
4385.0 7.506020975448852e-13
4386.0 7.503582815144389e-13
4387.0 7.501145446819124e-13
4388.0 7.498708870215854e-13
4389.0 7.496273085077356e-13
4390.0 7.493838091146593e-13
4391.0 7.49140388816651e-13
4392.0 7.488970475880238e-13
4393.0 7.486537854030885e-13
4394.0 7.484106022361722e-13
4395.0 7.481674980616107e-13
4396.0 7.479244728537398e-13
4397.0 7.476815265869145e-13
4398.0 7.474386592354873e-13
4399.0 7.471958707738299e-13
4400.0 7.469531611763114e-13
4401.0 7.467105304173198e-13
4402.0 7.464679784712415e-13
4403.0 7.46225505312481e-13
4404.0 7.45983110915441e-13
4405.0 7.457407952545401e-13
4406.0 7.454985583042055e-13
4407.0 7.452564000388648e-13
4408.0 7.450143204329642e-13
4409.0 7.447723194609479e-13
4410.0 7.445303970972789e-13
4411.0 7.442885533164177e-13
4412.0 7.440467880928442e-13
4413.0 7.438051014010353e-13
4414.0 7.435634932154872e-13
4415.0 7.43321963510694e-13
4416.0 7.430805122611684e-13
4417.0 7.428391394414205e-13
4418.0 7.42597845025977e-13
4419.0 7.42356628989373e-13
4420.0 7.421154913061436e-13
4421.0 7.41874431950843e-13
4422.0 7.416334508980228e-13
4423.0 7.413925481222538e-13
4424.0 7.411517235981042e-13
4424.89 1.0776e-12
4425.53 9.8737e-13
4426.16 1.1142e-12
4426.8 1.088e-12
4427.44 1.0051e-12
4428.07 9.7236e-13
4428.71 8.9492e-13
4429.34 8.9904e-13
4429.98 9.3194e-13
4430.61 9.0503e-13
4431.25 9.021e-13
4431.88 8.8183e-13
4432.52 8.9937e-13
4433.16 8.6422e-13
4433.79 8.7788e-13
4434.43 8.6964e-13
4435.06 8.9448e-13
4435.7 8.7577e-13
4436.33 9.4076e-13
4436.97 9.0121e-13
4437.61 9.0388e-13
4438.24 8.9135e-13
4438.88 9.1855e-13
4439.51 1.0022e-12
4440.15 9.1754e-13
4440.78 9.1812e-13
4441.42 9.1585e-13
4442.05 8.1853e-13
4442.69 8.4153e-13
4443.33 8.943e-13
4443.96 8.5169e-13
4444.6 8.7148e-13
4445.23 8.8959e-13
4445.87 8.9774e-13
4446.5 8.6694e-13
4447.14 8.7465e-13
4447.78 8.7207e-13
4448.41 8.7558e-13
4449.05 8.7569e-13
4449.68 8.8427e-13
4450.32 8.5841e-13
4450.95 8.728e-13
4451.59 8.8714e-13
4452.22 8.9693e-13
4452.86 8.748e-13
4453.5 9.2642e-13
4454.13 9.47e-13
4454.77 9.3116e-13
4455.4 8.6687e-13
4456.04 8.5574e-13
4456.67 8.9126e-13
4457.31 8.9665e-13
4457.95 9.019e-13
4458.58 8.508e-13
4459.22 8.4281e-13
4459.85 8.7948e-13
4460.49 8.6575e-13
4461.12 8.1445e-13
4461.76 8.3527e-13
4462.39 8.6457e-13
4463.03 8.1337e-13
4463.67 8.6266e-13
4464.3 8.5675e-13
4464.94 8.2901e-13
4465.57 7.9734e-13
4466.21 8.1468e-13
4466.84 8.0207e-13
4467.48 8.138e-13
4468.12 8.376e-13
4468.75 8.478e-13
4469.39 8.2654e-13
4470.02 8.0774e-13
4470.66 8.1382e-13
4471.29 8.0176e-13
4471.93 8.3291e-13
4472.56 8.0925e-13
4473.2 7.9345e-13
4473.84 8.2029e-13
4474.47 8.3721e-13
4475.11 8.2218e-13
4475.74 8.4248e-13
4476.38 8.4051e-13
4477.01 8.2611e-13
4477.65 8.0579e-13
4478.29 8.0949e-13
4478.92 8.2667e-13
4479.56 8.3011e-13
4480.19 8.3615e-13
4480.83 8.2479e-13
4481.46 8.3607e-13
4482.1 8.2036e-13
4482.73 8.1924e-13
4483.37 8.2042e-13
4484.01 8.1648e-13
4484.64 8.0187e-13
4485.28 8.0601e-13
4485.91 8.1576e-13
4486.55 8.23e-13
4487.18 8.0746e-13
4487.82 8.0784e-13
4488.46 7.9846e-13
4489.09 8.1479e-13
4489.73 8.0046e-13
4490.36 8.0597e-13
4491.0 8.0734e-13
4491.63 7.9335e-13
4492.27 8.0723e-13
4492.9 8.2565e-13
4493.54 8.1014e-13
4494.18 7.9878e-13
4494.81 7.9837e-13
4495.45 8.0146e-13
4496.08 8.0873e-13
4496.72 8.1518e-13
4497.35 8.1952e-13
4497.99 8.0017e-13
4498.63 8.0289e-13
4499.26 8.1154e-13
4499.9 8.0973e-13
4500.53 7.9858e-13
4501.17 7.7159e-13
4501.8 7.9051e-13
4502.44 7.9899e-13
4503.08 7.7744e-13
4503.71 7.8957e-13
4504.35 7.9456e-13
4504.98 7.8148e-13
4505.62 7.9416e-13
4506.25 7.8581e-13
4506.89 8.1345e-13
4507.52 8.096e-13
4508.16 8.0387e-13
4508.8 8.1704e-13
4509.43 8.0516e-13
4510.07 8.0018e-13
4510.7 7.9086e-13
4511.34 7.7933e-13
4511.97 7.89e-13
4512.61 8.1004e-13
4513.25 8.0245e-13
4513.88 7.9432e-13
4514.52 8.0812e-13
4515.15 8.0143e-13
4515.79 7.9979e-13
4516.42 7.9932e-13
4517.06 7.8379e-13
4517.69 7.8801e-13
4518.33 7.8974e-13
4518.97 7.9309e-13
4519.6 7.884e-13
4520.24 7.9028e-13
4520.87 7.8445e-13
4521.51 7.991e-13
4522.14 8.1393e-13
4522.78 7.9609e-13
4523.42 7.858e-13
4524.05 7.8896e-13
4524.69 7.9403e-13
4525.32 7.8798e-13
4525.96 7.8306e-13
4526.59 7.8754e-13
4527.23 8.0159e-13
4527.86 7.9757e-13
4528.5 8.0127e-13
4529.14 7.975e-13
4529.77 7.9894e-13
4530.41 7.9592e-13
4531.04 7.8784e-13
4531.68 7.9325e-13
4532.31 7.977e-13
4532.95 7.9034e-13
4533.59 8.0533e-13
4534.22 8.0444e-13
4534.86 8.0274e-13
4535.49 7.9773e-13
4536.13 7.93e-13
4536.76 7.925e-13
4537.4 7.7792e-13
4538.03 7.8757e-13
4538.67 7.8119e-13
4539.31 7.7042e-13
4539.94 7.7419e-13
4540.58 7.6528e-13
4541.21 7.7076e-13
4541.85 7.6671e-13
4542.48 7.6469e-13
4543.12 7.6531e-13
4543.76 7.6488e-13
4544.39 7.7726e-13
4545.03 7.7162e-13
4545.66 7.7832e-13
4546.3 7.5563e-13
4546.93 7.7168e-13
4547.57 7.7655e-13
4548.2 7.8566e-13
4548.84 7.9445e-13
4549.48 7.7699e-13
4550.11 7.7162e-13
4550.75 7.6337e-13
4551.38 7.6444e-13
4552.02 7.7432e-13
4552.65 7.6868e-13
4553.29 7.6477e-13
4553.93 7.7266e-13
4554.56 7.8048e-13
4555.2 7.6692e-13
4555.83 7.7179e-13
4556.47 7.7662e-13
4557.1 7.7169e-13
4557.74 7.5997e-13
4558.37 7.6205e-13
4559.01 7.5618e-13
4559.65 7.6039e-13
4560.28 7.7259e-13
4560.92 7.6851e-13
4561.55 7.6684e-13
4562.19 7.5083e-13
4562.82 7.6364e-13
4563.46 7.6183e-13
4564.1 7.4787e-13
4564.73 7.4563e-13
4565.37 7.68e-13
4566.0 7.614e-13
4566.64 7.495e-13
4567.27 7.485e-13
4567.91 7.3468e-13
4568.54 7.3765e-13
4569.18 7.529e-13
4569.82 7.5984e-13
4570.45 7.5176e-13
4571.09 7.5757e-13
4571.72 7.4945e-13
4572.36 7.691e-13
4572.99 7.6499e-13
4573.63 7.5054e-13
4574.27 7.4368e-13
4574.9 7.5118e-13
4575.54 7.3522e-13
4576.17 7.4876e-13
4576.81 7.6242e-13
4577.44 7.6119e-13
4578.08 7.5874e-13
4578.71 7.4768e-13
4579.35 7.5019e-13
4579.99 7.6202e-13
4580.62 7.679e-13
4581.26 7.6419e-13
4581.89 7.6182e-13
4582.53 7.4892e-13
4583.16 7.6227e-13
4583.8 7.7944e-13
4584.44 7.7288e-13
4585.07 7.6116e-13
4585.71 7.5431e-13
4586.34 7.6213e-13
4586.98 7.6311e-13
4587.61 7.623e-13
4588.25 7.6031e-13
4588.88 7.5971e-13
4589.52 7.5806e-13
4590.16 7.5701e-13
4590.79 7.6876e-13
4591.43 7.6579e-13
4592.06 7.6295e-13
4592.7 7.6246e-13
4593.33 7.5764e-13
4593.97 7.4939e-13
4594.61 7.4419e-13
4595.24 7.4684e-13
4595.88 7.483e-13
4596.51 7.5039e-13
4597.15 7.4515e-13
4597.78 7.5277e-13
4598.42 7.5095e-13
4599.06 7.4906e-13
4599.69 7.5135e-13
4600.33 7.4095e-13
4600.96 7.3431e-13
4601.6 7.4569e-13
4602.23 7.4474e-13
4602.87 7.4245e-13
4603.5 7.4123e-13
4604.14 7.4696e-13
4604.78 7.3986e-13
4605.41 7.4357e-13
4606.05 7.3951e-13
4606.68 7.4508e-13
4607.32 7.5386e-13
4607.95 7.5079e-13
4608.59 7.3957e-13
4609.23 7.4131e-13
4609.86 7.3742e-13
4610.5 7.3702e-13
4611.13 7.4652e-13
4611.77 7.4604e-13
4612.4 7.374e-13
4613.04 7.4252e-13
4613.67 7.4826e-13
4614.31 7.3773e-13
4614.95 7.2698e-13
4615.58 7.2919e-13
4616.22 7.299e-13
4616.85 7.2018e-13
4617.49 7.2445e-13
4618.12 7.2913e-13
4618.76 7.2718e-13
4619.4 7.1504e-13
4620.03 7.2065e-13
4620.67 7.3539e-13
4621.3 7.2627e-13
4621.94 7.1713e-13
4622.57 7.2179e-13
4623.21 7.2706e-13
4623.84 7.2908e-13
4624.48 7.3029e-13
4625.12 7.2799e-13
4625.75 7.3048e-13
4626.39 7.2743e-13
4627.02 7.2448e-13
4627.66 7.268e-13
4628.29 7.1789e-13
4628.93 7.2091e-13
4629.57 7.2949e-13
4630.2 7.1077e-13
4630.84 7.0281e-13
4631.47 7.0878e-13
4632.11 7.0091e-13
4632.74 7.0028e-13
4633.38 7.1182e-13
4634.01 7.0852e-13
4634.65 7.0396e-13
4635.29 7.1457e-13
4635.92 7.1475e-13
4636.56 7.0837e-13
4637.19 7.1321e-13
4637.83 7.229e-13
4638.46 7.1148e-13
4639.1 7.0837e-13
4639.74 7.1519e-13
4640.37 7.1882e-13
4641.01 7.0751e-13
4641.64 7.0418e-13
4642.28 7.1547e-13
4642.91 7.1893e-13
4643.55 7.0547e-13
4644.18 7.1563e-13
4644.82 7.0667e-13
4645.46 6.9728e-13
4646.09 6.976e-13
4646.73 6.999e-13
4647.36 6.9549e-13
4648.0 6.944e-13
4648.63 6.9718e-13
4649.27 7.0323e-13
4649.91 6.9626e-13
4650.54 6.9691e-13
4651.18 6.9191e-13
4651.81 6.9564e-13
4652.45 6.9404e-13
4653.08 6.8795e-13
4653.72 6.817e-13
4654.35 6.7804e-13
4654.99 6.8251e-13
4655.63 6.7804e-13
4656.26 6.7608e-13
4656.9 6.7167e-13
4657.53 6.7313e-13
4658.17 6.6939e-13
4658.8 6.7399e-13
4659.44 6.8245e-13
4660.08 6.7214e-13
4660.71 6.6721e-13
4661.35 6.6489e-13
4661.98 6.6591e-13
4662.62 6.7063e-13
4663.25 6.6409e-13
4663.89 6.5977e-13
4664.52 6.5986e-13
4665.16 6.57e-13
4665.8 6.6061e-13
4666.43 6.6755e-13
4667.07 6.4866e-13
4667.7 6.4735e-13
4668.34 6.5955e-13
4668.97 6.5038e-13
4669.61 6.5356e-13
4670.25 6.4998e-13
4670.88 6.5131e-13
4671.52 6.4384e-13
4672.15 6.3738e-13
4672.79 6.4109e-13
4673.42 6.3822e-13
4674.06 6.4521e-13
4674.69 6.4823e-13
4675.33 6.3996e-13
4675.97 6.3925e-13
4676.6 6.4261e-13
4677.24 6.3645e-13
4677.87 6.4315e-13
4678.51 6.3351e-13
4679.14 6.3994e-13
4679.78 6.39e-13
4680.42 6.2736e-13
4681.05 6.3459e-13
4681.69 6.4438e-13
4682.32 6.332e-13
4682.96 6.2425e-13
4683.59 6.2485e-13
4684.23 6.2027e-13
4684.87 6.1152e-13
4685.5 6.1513e-13
4686.14 6.1104e-13
4686.77 6.1622e-13
4687.41 6.1967e-13
4688.04 6.1788e-13
4688.68 6.1052e-13
4689.31 6.0835e-13
4689.95 6.0834e-13
4690.59 6.1133e-13
4691.22 6.1722e-13
4691.86 6.0968e-13
4692.49 6.0772e-13
4693.13 6.0675e-13
4693.76 6.1267e-13
4694.4 6.0888e-13
4695.04 6.1349e-13
4695.67 6.1727e-13
4696.31 6.1751e-13
4696.94 6.1601e-13
4697.58 6.2477e-13
4698.21 6.2145e-13
4698.85 6.2018e-13
4699.48 6.1918e-13
4700.12 6.3009e-13
4700.76 6.2733e-13
4701.39 6.174e-13
4702.03 6.2138e-13
4702.66 6.1447e-13
4703.3 6.1015e-13
4703.93 6.1862e-13
4704.57 6.221e-13
4705.21 6.1834e-13
4705.84 6.1595e-13
4706.48 6.1107e-13
4707.11 6.0973e-13
4707.75 6.1156e-13
4708.38 6.1611e-13
4709.02 6.1422e-13
4709.65 6.0731e-13
4710.29 6.1227e-13
4710.93 6.1471e-13
4711.56 6.1425e-13
4712.2 6.1294e-13
4712.83 6.1893e-13
4713.47 6.1605e-13
4714.1 6.179e-13
4714.74 6.1499e-13
4715.38 6.1717e-13
4716.01 6.1525e-13
4716.65 6.1243e-13
4717.28 6.139e-13
4717.92 6.1949e-13
4718.55 6.1437e-13
4719.19 6.1959e-13
4719.82 6.1719e-13
4720.46 6.1213e-13
4721.1 6.0912e-13
4721.73 6.0416e-13
4722.37 6.0232e-13
4723.0 6.0553e-13
4723.64 6.1107e-13
4724.27 6.1655e-13
4724.91 6.1032e-13
4725.55 6.0501e-13
4726.18 6.117e-13
4726.82 6.1678e-13
4727.45 6.1097e-13
4728.09 6.0314e-13
4728.72 6.0232e-13
4729.36 6.1247e-13
4729.99 6.1158e-13
4730.63 6.1348e-13
4731.27 6.14e-13
4731.9 6.1142e-13
4732.54 6.2286e-13
4733.17 6.2294e-13
4733.81 6.1874e-13
4734.44 6.2358e-13
4735.08 6.2377e-13
4735.72 6.2125e-13
4736.35 6.2026e-13
4736.99 6.1995e-13
4737.62 6.211e-13
4738.26 6.1973e-13
4738.89 6.2286e-13
4739.53 6.2295e-13
4740.16 6.3113e-13
4740.8 6.3365e-13
4741.44 6.3641e-13
4742.07 6.32e-13
4742.71 6.3868e-13
4743.34 6.2968e-13
4743.98 6.2639e-13
4744.61 6.4028e-13
4745.25 6.3881e-13
4745.89 6.3656e-13
4746.52 6.408e-13
4747.16 6.3411e-13
4747.79 6.3425e-13
4748.43 6.5219e-13
4749.06 6.3746e-13
4749.7 6.5236e-13
4750.33 6.4924e-13
4750.97 6.4542e-13
4751.61 6.407e-13
4752.24 6.4157e-13
4752.88 6.445e-13
4753.51 6.4571e-13
4754.15 6.5527e-13
4754.78 6.5145e-13
4755.42 6.4758e-13
4756.06 6.4357e-13
4756.69 6.4374e-13
4757.33 6.4332e-13
4757.96 6.5183e-13
4758.6 6.5926e-13
4759.23 6.5634e-13
4759.87 6.4815e-13
4760.5 6.5283e-13
4761.14 6.5511e-13
4761.78 6.6145e-13
4762.41 6.6214e-13
4763.05 6.6353e-13
4763.68 6.5368e-13
4764.32 6.5004e-13
4764.95 6.6268e-13
4765.59 6.7167e-13
4766.23 6.6913e-13
4766.86 6.6357e-13
4767.5 6.6874e-13
4768.13 6.7622e-13
4768.77 6.7813e-13
4769.4 6.8108e-13
4770.04 6.7843e-13
4770.68 6.7445e-13
4771.31 6.7576e-13
4771.95 6.7773e-13
4772.58 6.7677e-13
4773.22 6.7854e-13
4773.85 6.7945e-13
4774.49 6.7525e-13
4775.12 6.8076e-13
4775.76 6.8281e-13
4776.4 6.7763e-13
4777.03 6.8911e-13
4777.67 6.913e-13
4778.3 6.7933e-13
4778.94 6.8484e-13
4779.57 6.9269e-13
4780.21 6.8977e-13
4780.85 6.9747e-13
4781.48 6.913e-13
4782.12 7.015e-13
4782.75 6.9063e-13
4783.39 6.9596e-13
4784.02 7.0349e-13
4784.66 6.947e-13
4785.29 6.9427e-13
4785.93 7.0165e-13
4786.57 6.9565e-13
4787.2 6.9311e-13
4787.84 7.0468e-13
4788.47 6.9965e-13
4789.11 6.9604e-13
4789.74 7.0577e-13
4790.38 7.0543e-13
4791.02 7.0302e-13
4791.65 7.0579e-13
4792.29 7.0384e-13
4792.92 7.0479e-13
4793.56 7.0597e-13
4794.19 7.0133e-13
4794.83 7.0638e-13
4795.46 7.0795e-13
4796.1 7.0569e-13
4796.74 7.0551e-13
4797.37 7.0269e-13
4798.01 7.0636e-13
4798.64 7.0306e-13
4799.28 7.0673e-13
4799.91 7.0242e-13
4800.55 7.0139e-13
4801.19 6.9798e-13
4801.82 7.0331e-13
4802.46 7.0255e-13
4803.09 6.9251e-13
4803.73 7.0179e-13
4804.36 7.0011e-13
4805.0 6.979e-13
4805.63 6.9846e-13
4806.27 7.0345e-13
4806.91 7.1004e-13
4807.54 7.0611e-13
4808.18 7.0386e-13
4808.81 6.9961e-13
4809.45 7.0221e-13
4810.08 7.0889e-13
4810.72 7.0641e-13
4811.36 7.0225e-13
4811.99 7.0502e-13
4812.63 7.0839e-13
4813.26 7.0693e-13
4813.9 7.0304e-13
4814.53 6.9765e-13
4815.17 6.9415e-13
4815.8 7.0005e-13
4816.44 7.0333e-13
4817.08 6.9865e-13
4817.71 7.004e-13
4818.35 6.965e-13
4818.98 6.9398e-13
4819.62 6.9734e-13
4820.25 6.9584e-13
4820.89 6.9928e-13
4821.53 7.0904e-13
4822.16 6.998e-13
4822.8 7.0474e-13
4823.43 7.139e-13
4824.07 7.1178e-13
4824.7 7.055e-13
4825.34 7.078e-13
4825.97 7.0775e-13
4826.61 6.9515e-13
4827.25 7.0393e-13
4827.88 7.0182e-13
4828.52 6.969e-13
4829.15 6.9511e-13
4829.79 6.9531e-13
4830.42 6.9449e-13
4831.06 6.9355e-13
4831.7 6.9642e-13
4832.33 7.0257e-13
4832.97 6.9361e-13
4833.6 6.95e-13
4834.24 7.0722e-13
4834.87 7.0657e-13
4835.51 6.9979e-13
4836.14 6.9399e-13
4836.78 6.9148e-13
4837.42 6.955e-13
4838.05 6.9792e-13
4838.69 6.9338e-13
4839.32 6.8572e-13
4839.96 6.8565e-13
4840.59 6.8507e-13
4841.23 6.9128e-13
4841.87 6.9457e-13
4842.5 6.9441e-13
4843.14 6.9068e-13
4843.77 6.8733e-13
4844.41 6.8357e-13
4845.04 6.8528e-13
4845.68 6.8562e-13
4846.31 6.8941e-13
4846.95 6.8791e-13
4847.59 6.8392e-13
4848.22 6.8231e-13
4848.86 6.8535e-13
4849.49 6.9436e-13
4850.13 6.9093e-13
4850.76 6.8154e-13
4851.4 6.7486e-13
4852.04 6.7766e-13
4852.67 6.8788e-13
4853.31 6.8185e-13
4853.94 6.7816e-13
4854.58 6.8225e-13
4855.21 6.8374e-13
4855.85 6.8043e-13
4856.48 6.7637e-13
4857.12 6.8448e-13
4857.76 6.7913e-13
4858.39 6.7325e-13
4859.03 6.6481e-13
4859.66 6.7637e-13
4860.3 6.7787e-13
4860.93 6.7548e-13
4861.57 6.7211e-13
4862.21 6.7357e-13
4862.84 6.7732e-13
4863.48 6.7521e-13
4864.11 6.8334e-13
4864.75 6.7771e-13
4865.38 6.6462e-13
4866.02 6.6521e-13
4866.66 6.6127e-13
4867.29 6.7105e-13
4867.93 6.736e-13
4868.56 6.668e-13
4869.2 6.6578e-13
4869.83 6.7149e-13
4870.47 6.7175e-13
4871.1 6.6578e-13
4871.74 6.6273e-13
4872.38 6.5958e-13
4873.01 6.6107e-13
4873.65 6.6652e-13
4874.28 6.6618e-13
4874.92 6.6221e-13
4875.55 6.5998e-13
4876.19 6.5636e-13
4876.83 6.624e-13
4877.46 6.5934e-13
4878.1 6.5765e-13
4878.73 6.5718e-13
4879.37 6.4715e-13
4880.0 6.5452e-13
4880.64 6.5551e-13
4881.27 6.5664e-13
4881.91 6.541e-13
4882.55 6.5047e-13
4883.18 6.484e-13
4883.82 6.5355e-13
4884.45 6.4865e-13
4885.09 6.556e-13
4885.72 6.617e-13
4886.36 6.5701e-13
4887.0 6.5464e-13
4887.63 6.5579e-13
4888.27 6.5196e-13
4888.9 6.5267e-13
4889.54 6.5279e-13
4890.17 6.5074e-13
4890.81 6.535e-13
4891.44 6.5259e-13
4892.08 6.477e-13
4892.72 6.515e-13
4893.35 6.4239e-13
4893.99 6.3925e-13
4894.62 6.359e-13
4895.26 6.3936e-13
4895.89 6.3559e-13
4896.53 6.3539e-13
4897.17 6.2982e-13
4897.8 6.3717e-13
4898.44 6.3894e-13
4899.07 6.347e-13
4899.71 6.3226e-13
4900.34 6.3466e-13
4900.98 6.3431e-13
4901.61 6.3274e-13
4902.25 6.32e-13
4902.89 6.3146e-13
4903.52 6.3117e-13
4904.16 6.2959e-13
4904.79 6.2786e-13
4905.43 6.3015e-13
4906.06 6.2832e-13
4906.7 6.2623e-13
4907.34 6.2655e-13
4907.97 6.2513e-13
4908.61 6.2817e-13
4909.24 6.2681e-13
4909.88 6.2724e-13
4910.51 6.2393e-13
4911.15 6.2525e-13
4911.78 6.2675e-13
4912.42 6.257e-13
4913.06 6.255e-13
4913.69 6.2354e-13
4914.33 6.2645e-13
4914.96 6.2714e-13
4915.6 6.2719e-13
4916.23 6.2827e-13
4916.87 6.3365e-13
4917.51 6.3198e-13
4918.14 6.2694e-13
4918.78 6.3691e-13
4919.41 6.3117e-13
4920.05 6.2962e-13
4920.68 6.3036e-13
4921.32 6.2254e-13
4921.95 6.3523e-13
4922.59 6.2935e-13
4923.23 6.3086e-13
4923.86 6.3126e-13
4924.5 6.2269e-13
4925.13 6.1489e-13
4925.77 6.1415e-13
4926.4 6.103e-13
4927.04 6.1283e-13
4927.68 6.1163e-13
4928.31 6.1002e-13
4928.95 6.0853e-13
4929.58 6.1341e-13
4930.22 6.1144e-13
4930.85 6.1114e-13
4931.49 6.1528e-13
4932.12 6.1241e-13
4932.76 6.1846e-13
4933.4 6.2352e-13
4934.03 6.2311e-13
4934.67 6.1572e-13
4935.3 6.186e-13
4935.94 6.2025e-13
4936.57 6.1615e-13
4937.21 6.1372e-13
4937.85 6.1794e-13
4938.48 6.2427e-13
4939.12 6.1812e-13
4939.75 6.1128e-13
4940.39 6.117e-13
4941.02 6.1351e-13
4941.66 6.0992e-13
4942.29 6.1457e-13
4942.93 6.1358e-13
4943.57 6.1047e-13
4944.2 6.1252e-13
4944.84 6.0763e-13
4945.47 6.0772e-13
4946.11 6.036e-13
4946.74 6.0721e-13
4947.38 6.1043e-13
4948.02 6.1157e-13
4948.65 6.0868e-13
4949.29 6.102e-13
4949.92 6.0976e-13
4950.56 6.0952e-13
4951.19 6.1048e-13
4951.83 6.1569e-13
4952.47 6.1066e-13
4953.1 6.0963e-13
4953.74 6.0986e-13
4954.37 6.0588e-13
4955.01 6.0829e-13
4955.64 6.1593e-13
4956.28 6.1647e-13
4956.91 6.1573e-13
4957.55 6.1719e-13
4958.19 6.0961e-13
4958.82 6.108e-13
4959.46 6.1307e-13
4960.09 6.0852e-13
4960.73 6.0989e-13
4961.36 6.1264e-13
4962.0 6.0925e-13
4962.64 6.0543e-13
4963.27 5.9902e-13
4963.91 6.0108e-13
4964.54 6.0457e-13
4965.18 6.084e-13
4965.81 6.107e-13
4966.45 6.0693e-13
4967.08 6.0166e-13
4967.72 5.9384e-13
4968.36 6.022e-13
4968.99 6.0331e-13
4969.63 6.1015e-13
4970.26 6.0686e-13
4970.9 5.9831e-13
4971.53 5.9694e-13
4972.17 5.9751e-13
4972.81 5.9937e-13
4973.44 5.9703e-13
4974.08 5.9803e-13
4974.71 5.9341e-13
4975.35 5.9969e-13
4975.98 6.0103e-13
4976.62 5.9867e-13
4977.25 5.9849e-13
4977.89 5.927e-13
4978.53 5.914e-13
4979.16 5.9598e-13
4979.8 5.9731e-13
4980.43 5.9998e-13
4981.07 6.0024e-13
4981.7 5.9687e-13
4982.34 6.0169e-13
4982.98 5.993e-13
4983.61 6.043e-13
4984.25 5.9701e-13
4984.88 5.9909e-13
4985.52 5.9766e-13
4986.15 5.9933e-13
4986.79 5.9525e-13
4987.42 5.9429e-13
4988.06 5.9496e-13
4988.7 6.0381e-13
4989.33 5.9311e-13
4989.97 5.9342e-13
4990.6 5.9915e-13
4991.24 5.981e-13
4991.87 5.9328e-13
4992.51 5.9485e-13
4993.15 5.9502e-13
4993.78 5.9701e-13
4994.42 5.982e-13
4995.05 5.9759e-13
4995.69 5.9689e-13
4996.32 5.9155e-13
4996.96 5.9112e-13
4997.59 5.9252e-13
4998.23 5.9747e-13
4998.87 5.9567e-13
4999.5 5.9476e-13
5000.14 5.9945e-13
5000.77 5.9626e-13
5001.41 5.9323e-13
5002.04 5.936e-13
5002.68 5.9157e-13
5003.32 5.9084e-13
5003.95 5.932e-13
5004.59 5.9286e-13
5005.22 5.8727e-13
5005.86 5.8876e-13
5006.49 5.9779e-13
5007.13 5.9151e-13
5007.76 5.9454e-13
5008.4 5.9561e-13
5009.04 5.9297e-13
5009.67 5.9386e-13
5010.31 5.9216e-13
5010.94 5.9806e-13
5011.58 5.8989e-13
5012.21 5.9064e-13
5012.85 5.9967e-13
5013.49 5.9915e-13
5014.12 6.007e-13
5014.76 5.9989e-13
5015.39 5.9385e-13
5016.03 5.8979e-13
5016.66 5.9182e-13
5017.3 5.9641e-13
5017.93 6.007e-13
5018.57 5.9572e-13
5019.21 5.8955e-13
5019.84 5.9297e-13
5020.48 5.8938e-13
5021.11 5.8636e-13
5021.75 5.8665e-13
5022.38 5.848e-13
5023.02 5.8509e-13
5023.66 5.8083e-13
5024.29 5.8298e-13
5024.93 5.82e-13
5025.56 5.7545e-13
5026.2 5.7771e-13
5026.83 5.7948e-13
5027.47 5.7521e-13
5028.1 5.7476e-13
5028.74 5.7748e-13
5029.38 5.7949e-13
5030.01 5.7729e-13
5030.65 5.7997e-13
5031.28 5.7306e-13
5031.92 5.7474e-13
5032.55 5.7855e-13
5033.19 5.7877e-13
5033.83 5.8188e-13
5034.46 5.8062e-13
5035.1 5.7761e-13
5035.73 5.746e-13
5036.37 5.8103e-13
5037.0 5.8027e-13
5037.64 5.8098e-13
5038.28 5.8082e-13
5038.91 5.8392e-13
5039.55 5.8091e-13
5040.18 5.809e-13
5040.82 5.8646e-13
5041.45 5.836e-13
5042.09 5.8411e-13
5042.72 5.8061e-13
5043.36 5.7832e-13
5044.0 5.7626e-13
5044.63 5.7786e-13
5045.27 5.8262e-13
5045.9 5.8554e-13
5046.54 5.837e-13
5047.17 5.7887e-13
5047.81 5.7322e-13
5048.45 5.7651e-13
5049.08 5.8077e-13
5049.72 5.8193e-13
5050.35 5.8123e-13
5050.99 5.8118e-13
5051.62 5.8699e-13
5052.26 5.8525e-13
5052.89 5.7984e-13
5053.53 5.7518e-13
5054.17 5.7761e-13
5054.8 5.8072e-13
5055.44 5.8035e-13
5056.07 5.8768e-13
5056.71 5.7727e-13
5057.34 5.795e-13
5057.98 5.7729e-13
5058.62 5.7762e-13
5059.25 5.7103e-13
5059.89 5.8196e-13
5060.52 5.7744e-13
5061.16 5.7827e-13
5061.79 5.7776e-13
5062.43 5.8009e-13
5063.06 5.8461e-13
5063.7 5.7665e-13
5064.34 5.8117e-13
5064.97 5.8781e-13
5065.61 5.8693e-13
5066.24 5.871e-13
5066.88 5.793e-13
5067.51 5.8496e-13
5068.15 5.8515e-13
5068.79 5.8899e-13
5069.42 5.8614e-13
5070.06 5.8314e-13
5070.69 5.8641e-13
5071.33 5.8361e-13
5071.96 5.8291e-13
5072.6 5.8305e-13
5073.23 5.8315e-13
5073.87 5.8556e-13
5074.51 5.8892e-13
5075.14 5.925e-13
5075.78 5.8378e-13
5076.41 5.8313e-13
5077.05 5.888e-13
5077.68 5.8527e-13
5078.32 5.847e-13
5078.96 5.8585e-13
5079.59 5.9196e-13
5080.23 5.8361e-13
5080.86 5.8118e-13
5081.5 5.8408e-13
5082.13 5.8501e-13
5082.77 5.8654e-13
5083.4 5.8918e-13
5084.04 5.7953e-13
5084.68 5.7866e-13
5085.31 5.7699e-13
5085.95 5.8068e-13
5086.58 5.8323e-13
5087.22 5.752e-13
5087.85 5.8259e-13
5088.49 5.7873e-13
5089.13 5.8579e-13
5089.76 5.8486e-13
5090.4 5.7827e-13
5091.03 5.8064e-13
5091.67 5.8027e-13
5092.3 5.8266e-13
5092.94 5.7942e-13
5093.57 5.8016e-13
5094.21 5.8159e-13
5094.85 5.7941e-13
5095.48 5.8238e-13
5096.12 5.8022e-13
5096.75 5.7961e-13
5097.39 5.8203e-13
5098.02 5.783e-13
5098.66 5.8053e-13
5099.3 5.8717e-13
5099.93 5.8267e-13
5100.57 5.754e-13
5101.2 5.7759e-13
5101.84 5.8506e-13
5102.47 5.8485e-13
5103.11 5.8131e-13
5103.74 5.791e-13
5104.38 5.802e-13
5105.02 5.7985e-13
5105.65 5.8069e-13
5106.29 5.78e-13
5106.92 5.7802e-13
5107.56 5.7928e-13
5108.19 5.8126e-13
5108.83 5.8362e-13
5109.47 5.8151e-13
5110.1 5.8005e-13
5110.74 5.8154e-13
5111.37 5.6941e-13
5112.01 5.7914e-13
5112.64 5.7618e-13
5113.28 5.7794e-13
5113.91 5.753e-13
5114.55 5.7294e-13
5115.19 5.7972e-13
5115.82 5.7346e-13
5116.46 5.72e-13
5117.09 5.8044e-13
5117.73 5.7599e-13
5118.36 5.7043e-13
5119.0 5.7508e-13
5119.64 5.7296e-13
5120.27 5.7835e-13
5120.91 5.7454e-13
5121.54 5.7893e-13
5122.18 5.798e-13
5122.81 5.7715e-13
5123.45 5.8138e-13
5124.09 5.7629e-13
5124.72 5.7102e-13
5125.36 5.7147e-13
5125.99 5.7065e-13
5126.63 5.7686e-13
5127.26 5.7989e-13
5127.9 5.7945e-13
5128.53 5.7827e-13
5129.17 5.7488e-13
5129.81 5.7345e-13
5130.44 5.7749e-13
5131.08 5.8037e-13
5131.71 5.8198e-13
5132.35 5.7978e-13
5132.98 5.799e-13
5133.62 5.852e-13
5134.26 5.8682e-13
5134.89 5.8279e-13
5135.53 5.8054e-13
5136.16 5.8306e-13
5136.8 5.7893e-13
5137.43 5.8176e-13
5138.07 5.7942e-13
5138.7 5.7758e-13
5139.34 5.7883e-13
5139.98 5.8289e-13
5140.61 5.7677e-13
5141.25 5.78e-13
5141.88 5.7815e-13
5142.52 5.7788e-13
5143.15 5.7491e-13
5143.79 5.781e-13
5144.43 5.8074e-13
5145.06 5.8247e-13
5145.7 5.7351e-13
5146.33 5.7804e-13
5146.97 5.7825e-13
5147.6 5.7442e-13
5148.24 5.7504e-13
5148.87 5.7377e-13
5149.51 5.7816e-13
5150.15 5.7708e-13
5150.78 5.8003e-13
5151.42 5.7537e-13
5152.05 5.7548e-13
5152.69 5.6948e-13
5153.32 5.7418e-13
5153.96 5.7736e-13
5154.6 5.7274e-13
5155.23 5.6843e-13
5155.87 5.683e-13
5156.5 5.7007e-13
5157.14 5.6952e-13
5157.77 5.6857e-13
5158.41 5.704e-13
5159.04 5.6778e-13
5159.68 5.6229e-13
5160.32 5.6095e-13
5160.95 5.6157e-13
5161.59 5.6131e-13
5162.22 5.6358e-13
5162.86 5.603e-13
5163.49 5.6134e-13
5164.13 5.6444e-13
5164.77 5.6397e-13
5165.4 5.6254e-13
5166.04 5.5755e-13
5166.67 5.5657e-13
5167.31 5.5814e-13
5167.94 5.5827e-13
5168.58 5.6044e-13
5169.21 5.6219e-13
5169.85 5.653e-13
5170.49 5.5853e-13
5171.12 5.5772e-13
5171.76 5.5814e-13
5172.39 5.6261e-13
5173.03 5.6218e-13
5173.66 5.6022e-13
5174.3 5.5976e-13
5174.94 5.6525e-13
5175.57 5.6743e-13
5176.21 5.6219e-13
5176.84 5.6395e-13
5177.48 5.6747e-13
5178.11 5.6542e-13
5178.75 5.6277e-13
5179.38 5.6481e-13
5180.02 5.6525e-13
5180.66 5.6661e-13
5181.29 5.6032e-13
5181.93 5.6963e-13
5182.56 5.6443e-13
5183.2 5.5966e-13
5183.83 5.7034e-13
5184.47 5.6963e-13
5185.11 5.6579e-13
5185.74 5.6803e-13
5186.38 5.6764e-13
5187.01 5.7013e-13
5187.65 5.755e-13
5188.28 5.749e-13
5188.92 5.7312e-13
5189.55 5.6948e-13
5190.19 5.7117e-13
5190.83 5.7272e-13
5191.46 5.7451e-13
5192.1 5.7355e-13
5192.73 5.7352e-13
5193.37 5.7479e-13
5194.0 5.7128e-13
5194.64 5.6843e-13
5195.28 5.6497e-13
5195.91 5.6909e-13
5196.55 5.669e-13
5197.18 5.6114e-13
5197.82 5.6029e-13
5198.45 5.6126e-13
5199.09 5.5689e-13
5199.72 5.5483e-13
5200.36 5.5631e-13
5201.0 5.5539e-13
5201.63 5.5329e-13
5202.27 5.5855e-13
5202.9 5.6105e-13
5203.54 5.6003e-13
5204.17 5.5412e-13
5204.81 5.5397e-13
5205.45 5.542e-13
5206.08 5.546e-13
5206.72 5.4977e-13
5207.35 5.5178e-13
5207.99 5.5346e-13
5208.62 5.5456e-13
5209.26 5.5305e-13
5209.89 5.4967e-13
5210.53 5.5803e-13
5211.17 5.5703e-13
5211.8 5.562e-13
5212.44 5.5218e-13
5213.07 5.5137e-13
5213.71 5.5171e-13
5214.34 5.5383e-13
5214.98 5.5625e-13
5215.62 5.5369e-13
5216.25 5.5595e-13
5216.89 5.5645e-13
5217.52 5.5714e-13
5218.16 5.571e-13
5218.79 5.5518e-13
5219.43 5.5626e-13
5220.07 5.5703e-13
5220.7 5.5391e-13
5221.34 5.54e-13
5221.97 5.5935e-13
5222.61 5.6064e-13
5223.24 5.6233e-13
5223.88 5.6251e-13
5224.51 5.6405e-13
5225.15 5.6108e-13
5225.79 5.5895e-13
5226.42 5.5823e-13
5227.06 5.6225e-13
5227.69 5.6439e-13
5228.33 5.604e-13
5228.96 5.5459e-13
5229.6 5.5911e-13
5230.24 5.5687e-13
5230.87 5.5392e-13
5231.51 5.5689e-13
5232.14 5.5248e-13
5232.78 5.5612e-13
5233.41 5.4846e-13
5234.05 5.538e-13
5234.68 5.5486e-13
5235.32 5.4879e-13
5235.96 5.5479e-13
5236.59 5.4966e-13
5237.23 5.4689e-13
5237.86 5.4525e-13
5238.5 5.4915e-13
5239.13 5.5043e-13
5239.77 5.4128e-13
5240.41 5.398e-13
5241.04 5.4852e-13
5241.68 5.4414e-13
5242.31 5.4302e-13
5242.95 5.4498e-13
5243.58 5.4193e-13
5244.22 5.4722e-13
5244.85 5.4528e-13
5245.49 5.4603e-13
5246.13 5.4888e-13
5246.76 5.4998e-13
5247.4 5.4685e-13
5248.03 5.4474e-13
5248.67 5.3854e-13
5249.3 5.3976e-13
5249.94 5.4553e-13
5250.58 5.4222e-13
5251.21 5.4119e-13
5251.85 5.4242e-13
5252.48 5.4206e-13
5253.12 5.3872e-13
5253.75 5.3552e-13
5254.39 5.3862e-13
5255.02 5.3898e-13
5255.66 5.3676e-13
5256.3 5.3528e-13
5256.93 5.3771e-13
5257.57 5.3697e-13
5258.2 5.3616e-13
5258.84 5.3841e-13
5259.47 5.3835e-13
5260.11 5.3741e-13
5260.75 5.3163e-13
5261.38 5.3303e-13
5262.02 5.375e-13
5262.65 5.3975e-13
5263.29 5.3623e-13
5263.92 5.3342e-13
5264.56 5.334e-13
5265.19 5.3486e-13
5265.83 5.3078e-13
5266.47 5.2483e-13
5267.1 5.297e-13
5267.74 5.2827e-13
5268.37 5.2932e-13
5269.01 5.242e-13
5269.64 5.3236e-13
5270.28 5.321e-13
5270.92 5.2211e-13
5271.55 5.2229e-13
5272.19 5.2852e-13
5272.82 5.2913e-13
5273.46 5.2863e-13
5274.09 5.2551e-13
5274.73 5.2566e-13
5275.36 5.2391e-13
5276.0 5.2588e-13
5276.64 5.2669e-13
5277.27 5.2987e-13
5277.91 5.2688e-13
5278.54 5.3033e-13
5279.18 5.2687e-13
5279.81 5.2938e-13
5280.45 5.2814e-13
5281.09 5.2834e-13
5281.72 5.23e-13
5282.36 5.2534e-13
5282.99 5.2666e-13
5283.63 5.2458e-13
5284.26 5.2634e-13
5284.9 5.2242e-13
5285.53 5.1956e-13
5286.17 5.2305e-13
5286.81 5.198e-13
5287.44 5.1809e-13
5288.08 5.1584e-13
5288.71 5.125e-13
5289.35 5.1352e-13
5289.98 5.1738e-13
5290.62 5.1634e-13
5291.26 5.1269e-13
5291.89 5.1467e-13
5292.53 5.1742e-13
5293.16 5.1434e-13
5293.8 5.1411e-13
5294.43 5.1714e-13
5295.07 5.1377e-13
5295.7 5.1642e-13
5296.34 5.1799e-13
5296.98 5.1271e-13
5297.61 5.1603e-13
5298.25 5.1556e-13
5298.88 5.1298e-13
5299.52 5.1834e-13
5300.15 5.1677e-13
5300.79 5.1352e-13
5301.43 5.133e-13
5302.06 5.0864e-13
5302.7 5.0895e-13
5303.33 5.1079e-13
5303.97 5.1143e-13
5304.6 5.0899e-13
5305.24 5.0593e-13
5305.88 5.0351e-13
5306.51 5.0736e-13
5307.15 5.117e-13
5307.78 5.1047e-13
5308.42 5.0541e-13
5309.05 5.0948e-13
5309.69 5.1037e-13
5310.32 5.107e-13
5310.96 5.1165e-13
5311.6 5.0878e-13
5312.23 5.0979e-13
5312.87 5.0737e-13
5313.5 5.0599e-13
5314.14 5.0722e-13
5314.77 5.1365e-13
5315.41 5.1371e-13
5316.05 5.1202e-13
5316.68 5.0913e-13
5317.32 5.1182e-13
5317.95 5.1126e-13
5318.59 5.0839e-13
5319.22 5.0932e-13
5319.86 5.0851e-13
5320.49 5.082e-13
5321.13 5.1085e-13
5321.77 5.1489e-13
5322.4 5.1545e-13
5323.04 5.1816e-13
5323.67 5.1712e-13
5324.31 5.1508e-13
5324.94 5.1422e-13
5325.58 5.1552e-13
5326.22 5.1949e-13
5326.85 5.2361e-13
5327.49 5.222e-13
5328.12 5.2158e-13
5328.76 5.1714e-13
5329.39 5.1555e-13
5330.03 5.1675e-13
5330.66 5.1714e-13
5331.3 5.1705e-13
5331.94 5.1238e-13
5332.57 5.0772e-13
5333.21 5.1079e-13
5333.84 5.0896e-13
5334.48 5.0784e-13
5335.11 5.1059e-13
5335.75 5.1324e-13
5336.39 5.1008e-13
5337.02 5.0801e-13
5337.66 5.0554e-13
5338.29 5.0316e-13
5338.93 5.0423e-13
5339.56 5.1096e-13
5340.2 5.0536e-13
5340.83 5.0923e-13
5341.47 5.1143e-13
5342.11 5.1096e-13
5342.74 5.0999e-13
5343.38 5.0792e-13
5344.01 5.0958e-13
5344.65 5.1076e-13
5345.28 5.0601e-13
5345.92 5.0971e-13
5346.56 5.1013e-13
5347.19 5.0825e-13
5347.83 5.0608e-13
5348.46 5.0374e-13
5349.1 4.988e-13
5349.73 5.0435e-13
5350.37 5.051e-13
5351.0 5.0821e-13
5351.64 5.059e-13
5352.28 5.1157e-13
5352.91 5.065e-13
5353.55 5.029e-13
5354.18 5.0299e-13
5354.82 5.0049e-13
5355.45 5.0153e-13
5356.09 5.0119e-13
5356.73 5.0095e-13
5357.36 4.985e-13
5358.0 5.0562e-13
5358.63 5.1218e-13
5359.27 5.0027e-13
5359.9 5.0358e-13
5360.54 5.0558e-13
5361.17 5.0516e-13
5361.81 5.102e-13
5362.45 5.1047e-13
5363.08 5.1065e-13
5363.72 5.1169e-13
5364.35 5.1062e-13
5364.99 5.1243e-13
5365.62 5.1494e-13
5366.26 5.1499e-13
5366.9 5.1226e-13
5367.53 5.1271e-13
5368.17 5.1677e-13
5368.8 5.1701e-13
5369.44 5.1794e-13
5370.07 5.2098e-13
5370.71 5.1722e-13
5371.34 5.1188e-13
5371.98 5.1446e-13
5372.62 5.1624e-13
5373.25 5.103e-13
5373.89 5.0697e-13
5374.52 5.077e-13
5375.16 5.1129e-13
5375.79 5.0992e-13
5376.43 5.0881e-13
5377.07 5.1027e-13
5377.7 5.0753e-13
5378.34 5.0663e-13
5378.97 5.0916e-13
5379.61 5.1066e-13
5380.24 5.095e-13
5380.88 5.08e-13
5381.51 5.0813e-13
5382.15 5.0616e-13
5382.79 5.0773e-13
5383.42 5.0725e-13
5384.06 5.0175e-13
5384.69 5.0637e-13
5385.33 5.0836e-13
5385.96 5.0618e-13
5386.6 5.0999e-13
5387.24 5.0434e-13
5387.87 5.1362e-13
5388.51 5.1376e-13
5389.14 5.1132e-13
5389.78 5.1023e-13
5390.41 5.0566e-13
5391.05 5.067e-13
5391.69 5.0827e-13
5392.32 5.064e-13
5392.96 5.0581e-13
5393.59 5.0291e-13
5394.23 5.1381e-13
5394.86 5.0979e-13
5395.5 5.0602e-13
5396.13 5.113e-13
5396.77 5.12e-13
5397.41 5.0692e-13
5398.04 5.0879e-13
5398.68 5.0894e-13
5399.31 5.0749e-13
5399.95 5.0725e-13
5400.58 5.1402e-13
5401.22 5.1253e-13
5401.86 5.129e-13
5402.49 5.109e-13
5403.13 5.0997e-13
5403.76 5.1266e-13
5404.4 5.1472e-13
5405.03 5.1486e-13
5405.67 5.1222e-13
5406.3 5.0741e-13
5406.94 5.1011e-13
5407.58 5.0969e-13
5408.21 5.088e-13
5408.85 5.0706e-13
5409.48 5.0387e-13
5410.12 5.0478e-13
5410.75 5.0747e-13
5411.39 5.0498e-13
5412.03 5.0646e-13
5412.66 5.0722e-13
5413.3 5.0268e-13
5413.93 5.0346e-13
5414.57 5.041e-13
5415.2 5.0036e-13
5415.84 4.995e-13
5416.47 4.9949e-13
5417.11 5.0269e-13
5417.75 5.0166e-13
5418.38 5.0083e-13
5419.02 4.9931e-13
5419.65 5.0027e-13
5420.29 5.0675e-13
5420.92 5.0336e-13
5421.56 5.0126e-13
5422.2 5.0037e-13
5422.83 5.0061e-13
5423.47 5.0063e-13
5424.1 5.0282e-13
5424.74 5.0553e-13
5425.37 5.0431e-13
5426.01 5.0086e-13
5426.64 5.0201e-13
5427.28 5.1054e-13
5427.92 5.1001e-13
5428.55 5.0657e-13
5429.19 5.0566e-13
5429.82 5.0565e-13
5430.46 5.0276e-13
5431.09 5.0187e-13
5431.73 5.0751e-13
5432.37 5.0386e-13
5433.0 5.0195e-13
5433.64 5.002e-13
5434.27 4.989e-13
5434.91 5.016e-13
5435.54 4.9977e-13
5436.18 5.0065e-13
5436.81 4.9921e-13
5437.45 4.9876e-13
5438.09 5.0019e-13
5438.72 4.9604e-13
5439.36 4.9669e-13
5439.99 4.9666e-13
5440.63 4.9733e-13
5441.26 4.9183e-13
5441.9 4.8999e-13
5442.54 4.9701e-13
5443.17 5.1207e-13
5443.81 4.9821e-13
5444.44 5.017e-13
5445.08 4.9622e-13
5445.71 4.9645e-13
5446.35 5.0282e-13
5446.98 4.9645e-13
5447.62 4.9597e-13
5448.26 5.0062e-13
5448.89 4.9995e-13
5449.53 4.9531e-13
5450.16 4.9529e-13
5450.8 4.9396e-13
5451.43 4.9043e-13
5452.07 4.9577e-13
5452.71 4.9613e-13
5453.34 4.9781e-13
5453.98 4.9491e-13
5454.61 4.9564e-13
5455.25 4.9602e-13
5455.88 4.9333e-13
5456.52 4.9208e-13
5457.15 4.9331e-13
5457.79 4.8927e-13
5458.43 4.8864e-13
5459.06 4.9309e-13
5459.7 4.9222e-13
5460.33 4.8969e-13
5460.97 4.9063e-13
5461.6 4.8847e-13
5462.24 4.9173e-13
5462.88 4.9262e-13
5463.51 4.8568e-13
5464.15 4.8257e-13
5464.78 4.8326e-13
5465.42 4.8419e-13
5466.05 4.8422e-13
5466.69 4.835e-13
5467.32 4.8153e-13
5467.96 4.8099e-13
5468.6 4.857e-13
5469.23 4.8876e-13
5469.87 4.8472e-13
5470.5 4.8388e-13
5471.14 4.8645e-13
5471.77 4.8572e-13
5472.41 4.8699e-13
5473.05 4.8662e-13
5473.68 4.8751e-13
5474.32 4.8891e-13
5474.95 4.8996e-13
5475.59 4.8654e-13
5476.22 4.8581e-13
5476.86 4.8408e-13
5477.49 4.8439e-13
5478.13 4.8535e-13
5478.77 4.8345e-13
5479.4 4.8164e-13
5480.04 4.7944e-13
5480.67 4.7794e-13
5481.31 4.8079e-13
5481.94 4.8419e-13
5482.58 4.8483e-13
5483.22 4.8308e-13
5483.85 4.7952e-13
5484.49 4.778e-13
5485.12 4.778e-13
5485.76 4.7543e-13
5486.39 4.7689e-13
5487.03 4.7545e-13
5487.67 4.7781e-13
5488.3 4.7866e-13
5488.94 4.7408e-13
5489.57 4.7455e-13
5490.21 4.7285e-13
5490.84 4.7478e-13
5491.48 4.7363e-13
5492.11 4.7418e-13
5492.75 4.8216e-13
5493.39 4.768e-13
5494.02 4.7514e-13
5494.66 4.725e-13
5495.29 4.7193e-13
5495.93 4.7642e-13
5496.56 4.7342e-13
5497.2 4.7581e-13
5497.84 4.7837e-13
5498.47 4.7596e-13
5499.11 4.7302e-13
5499.74 4.7367e-13
5500.38 4.7625e-13
5501.01 4.7928e-13
5501.65 4.7907e-13
5502.28 4.7347e-13
5502.92 4.7736e-13
5503.56 4.7863e-13
5504.19 4.7735e-13
5504.83 4.8221e-13
5505.46 4.8079e-13
5506.1 4.747e-13
5506.73 4.7644e-13
5507.37 4.8078e-13
5508.01 4.7646e-13
5508.64 4.7238e-13
5509.28 4.7414e-13
5509.91 4.7574e-13
5510.55 4.7368e-13
5511.18 4.7252e-13
5511.82 4.7306e-13
5512.45 4.7291e-13
5513.09 4.7148e-13
5513.73 4.6885e-13
5514.36 4.7103e-13
5515.0 4.6721e-13
5515.63 4.702e-13
5516.27 4.7188e-13
5516.9 4.6835e-13
5517.54 4.6859e-13
5518.18 4.694e-13
5518.81 4.7024e-13
5519.45 4.7091e-13
5520.08 4.7211e-13
5520.72 4.7182e-13
5521.35 4.7282e-13
5521.99 4.7164e-13
5522.62 4.6888e-13
5523.26 4.6803e-13
5523.9 4.6978e-13
5524.53 4.6911e-13
5525.17 4.7127e-13
5525.8 4.7278e-13
5526.44 4.7235e-13
5527.07 4.7093e-13
5527.71 4.6556e-13
5528.35 4.6657e-13
5528.98 4.6934e-13
5529.62 4.7044e-13
5530.25 4.7055e-13
5530.89 4.682e-13
5531.52 4.6518e-13
5532.16 4.6818e-13
5532.79 4.7192e-13
5533.43 4.6621e-13
5534.07 4.6198e-13
5534.7 4.6223e-13
5535.34 4.6433e-13
5535.97 4.6383e-13
5536.61 4.6302e-13
5537.24 4.6578e-13
5537.88 4.6599e-13
5538.52 4.6471e-13
5539.15 4.6275e-13
5539.79 4.6556e-13
5540.42 4.6486e-13
5541.06 4.6339e-13
5541.69 4.6789e-13
5542.33 4.6748e-13
5542.96 4.6544e-13
5543.6 4.6439e-13
5544.24 4.6599e-13
5544.87 4.6881e-13
5545.51 4.6043e-13
5546.14 4.6671e-13
5546.78 4.707e-13
5547.41 4.6806e-13
5548.05 4.6806e-13
5548.69 4.6513e-13
5549.32 4.6487e-13
5549.96 4.653e-13
5550.59 4.6173e-13
5551.23 4.632e-13
5551.86 4.6257e-13
5552.5 4.6423e-13
5553.13 4.6781e-13
5553.77 4.6764e-13
5554.41 4.706e-13
5555.04 4.7048e-13
5555.68 4.7018e-13
5556.31 4.7073e-13
5556.95 4.7314e-13
5557.58 4.6434e-13
5558.22 4.6755e-13
5558.86 4.6553e-13
5559.49 4.7061e-13
5560.13 4.6807e-13
5560.76 4.6643e-13
5561.4 4.7061e-13
5562.03 4.6897e-13
5562.67 4.7168e-13
5563.3 4.6745e-13
5563.94 4.6503e-13
5564.58 4.6819e-13
5565.21 4.6907e-13
5565.85 4.7383e-13
5566.48 4.7376e-13
5567.12 4.752e-13
5567.75 4.7484e-13
5568.39 4.687e-13
5569.03 4.705e-13
5569.66 4.7348e-13
5570.3 4.7153e-13
5570.93 4.7081e-13
5571.57 4.7073e-13
5572.2 4.7696e-13
5572.84 4.7373e-13
5573.48 4.6736e-13
5574.11 4.6789e-13
5574.75 4.7211e-13
5575.38 4.7237e-13
5576.02 4.6728e-13
5576.65 4.6347e-13
5577.29 4.6509e-13
5577.92 4.7102e-13
5578.56 4.7175e-13
5579.2 4.7015e-13
5579.83 4.7058e-13
5580.47 4.6607e-13
5581.1 4.6398e-13
5581.74 4.6467e-13
5582.37 4.6915e-13
5583.01 4.7462e-13
5583.65 4.741e-13
5584.28 4.7204e-13
5584.92 4.7577e-13
5585.55 4.7828e-13
5586.19 4.7406e-13
5586.82 4.7345e-13
5587.46 4.7474e-13
5588.09 4.7413e-13
5588.73 4.7569e-13
5589.37 4.7507e-13
5590.0 4.7468e-13
5590.64 4.7402e-13
5591.27 4.7051e-13
5591.91 4.699e-13
5592.54 4.7146e-13
5593.18 4.7437e-13
5593.82 4.7472e-13
5594.45 4.7227e-13
5595.09 4.7176e-13
5595.72 4.7172e-13
5596.36 4.7073e-13
5596.99 4.6922e-13
5597.63 4.6884e-13
5598.26 4.7215e-13
5598.9 4.7301e-13
5599.54 4.7333e-13
5600.17 4.7306e-13
5600.81 4.6964e-13
5601.44 4.6804e-13
5602.08 4.6797e-13
5602.71 4.6783e-13
5603.35 4.6558e-13
5603.99 4.6833e-13
5604.62 4.6486e-13
5605.26 4.6481e-13
5605.89 4.6372e-13
5606.53 4.6265e-13
5607.16 4.6545e-13
5607.8 4.6921e-13
5608.43 4.6676e-13
5609.07 4.6381e-13
5609.71 4.6418e-13
5610.34 4.6258e-13
5610.98 4.6333e-13
5611.61 4.6851e-13
5612.25 4.6758e-13
5612.88 4.6438e-13
5613.52 4.6214e-13
5614.16 4.6457e-13
5614.79 4.709e-13
5615.43 4.7266e-13
5616.06 4.6875e-13
5616.7 4.6691e-13
5617.33 4.6732e-13
5617.97 4.6631e-13
5618.6 4.6434e-13
5619.24 4.6169e-13
5619.88 4.7053e-13
5620.51 4.7113e-13
5621.15 4.6662e-13
5621.78 4.6367e-13
5622.42 4.6355e-13
5623.05 4.622e-13
5623.69 4.5885e-13
5624.33 4.6037e-13
5624.96 4.6274e-13
5625.6 4.6245e-13
5626.23 4.6533e-13
5626.87 4.6494e-13
5627.5 4.6107e-13
5628.14 4.615e-13
5628.77 4.6108e-13
5629.41 4.5887e-13
5630.05 4.6328e-13
5630.68 4.6308e-13
5631.32 4.6141e-13
5631.95 4.6029e-13
5632.59 4.6405e-13
5633.22 4.6105e-13
5633.86 4.6169e-13
5634.5 4.6269e-13
5635.13 4.6074e-13
5635.77 4.6191e-13
5636.4 4.565e-13
5637.04 4.5937e-13
5637.67 4.6286e-13
5638.31 4.6129e-13
5638.94 4.5825e-13
5639.58 4.5909e-13
5640.22 4.6066e-13
5640.85 4.5964e-13
5641.49 4.5598e-13
5642.12 4.5255e-13
5642.76 4.5465e-13
5643.39 4.5785e-13
5644.03 4.5523e-13
5644.67 4.5531e-13
5645.3 4.5709e-13
5645.94 4.551e-13
5646.57 4.564e-13
5647.21 4.5161e-13
5647.84 4.4964e-13
5648.48 4.5367e-13
5649.11 4.5503e-13
5649.75 4.5757e-13
5650.39 4.5617e-13
5651.02 4.5628e-13
5651.66 4.5552e-13
5652.29 4.5898e-13
5652.93 4.6047e-13
5653.56 4.6004e-13
5654.2 4.6115e-13
5654.84 4.6071e-13
5655.47 4.5393e-13
5656.11 4.5528e-13
5656.74 4.5753e-13
5657.38 4.5376e-13
5658.01 4.5051e-13
5658.65 4.5984e-13
5659.29 4.6155e-13
5659.92 4.5983e-13
5660.56 4.5649e-13
5661.19 4.5127e-13
5661.83 4.5333e-13
5662.46 4.516e-13
5663.1 4.5365e-13
5663.73 4.5371e-13
5664.37 4.5248e-13
5665.01 4.5125e-13
5665.64 4.4577e-13
5666.28 4.4826e-13
5666.91 4.494e-13
5667.55 4.488e-13
5668.18 4.4208e-13
5668.82 4.4062e-13
5669.46 4.4518e-13
5670.09 4.4946e-13
5670.73 4.4631e-13
5671.36 4.4279e-13
5672.0 4.4351e-13
5672.63 4.4223e-13
5673.27 4.4143e-13
5673.9 4.4391e-13
5674.54 4.4225e-13
5675.18 4.4193e-13
5675.81 4.434e-13
5676.45 4.3999e-13
5677.08 4.4305e-13
5677.72 4.459e-13
5678.35 4.4288e-13
5678.99 4.4312e-13
5679.63 4.4461e-13
5680.26 4.4371e-13
5680.9 4.4435e-13
5681.53 4.458e-13
5682.17 4.4586e-13
5682.8 4.4317e-13
5683.44 4.4337e-13
5684.07 4.489e-13
5684.71 4.4474e-13
5685.35 4.4033e-13
5685.98 4.4075e-13
5686.62 4.4323e-13
5687.25 4.4685e-13
5687.89 4.4552e-13
5688.52 4.4133e-13
5689.16 4.4149e-13
5689.8 4.4349e-13
5690.43 4.4452e-13
5691.07 4.4119e-13
5691.7 4.4086e-13
5692.34 4.4419e-13
5692.97 4.4268e-13
5693.61 4.3864e-13
5694.24 4.3832e-13
5694.88 4.423e-13
5695.52 4.4421e-13
5696.15 4.424e-13
5696.79 4.4258e-13
5697.42 4.428e-13
5698.06 4.4306e-13
5698.69 4.447e-13
5699.33 4.3937e-13
5699.97 4.4084e-13
5700.6 4.4503e-13
5701.24 4.4513e-13
5701.87 4.4424e-13
5702.51 4.4381e-13
5703.14 4.4177e-13
5703.78 4.4404e-13
5704.41 4.428e-13
5705.05 4.4199e-13
5705.69 4.4238e-13
5706.32 4.456e-13
5706.96 4.4432e-13
5707.59 4.4005e-13
5708.23 4.3843e-13
5708.86 4.4266e-13
5709.5 4.4318e-13
5710.14 4.4399e-13
5710.77 4.4279e-13
5711.41 4.3971e-13
5712.04 4.4089e-13
5712.68 4.3993e-13
5713.31 4.3823e-13
5713.95 4.4093e-13
5714.58 4.4127e-13
5715.22 4.4394e-13
5715.86 4.3815e-13
5716.49 4.3538e-13
5717.13 4.4075e-13
5717.76 4.4074e-13
5718.4 4.3842e-13
5719.03 4.3707e-13
5719.67 4.4072e-13
5720.31 4.3802e-13
5720.94 4.3833e-13
5721.58 4.3982e-13
5722.21 4.4343e-13
5722.85 4.4022e-13
5723.48 4.4267e-13
5724.12 4.4516e-13
5724.75 4.4198e-13
5725.39 4.4157e-13
5726.03 4.4457e-13
5726.66 4.456e-13
5727.3 4.4533e-13
5727.93 4.413e-13
5728.57 4.4532e-13
5729.2 4.4969e-13
5729.84 4.4868e-13
5730.48 4.451e-13
5731.11 4.5019e-13
5731.75 4.4897e-13
5732.38 4.5089e-13
5733.02 4.5182e-13
5733.65 4.515e-13
5734.29 4.4904e-13
5734.92 4.5059e-13
5735.56 4.4757e-13
5736.2 4.497e-13
5736.83 4.4919e-13
5737.47 4.5093e-13
5738.1 4.4967e-13
5738.74 4.5236e-13
5739.37 4.4772e-13
5740.01 4.5165e-13
5740.65 4.5255e-13
5741.28 4.5093e-13
5741.92 4.4691e-13
5742.55 4.4818e-13
5743.19 4.5009e-13
5743.82 4.5087e-13
5744.46 4.5997e-13
5745.09 4.5464e-13
5745.73 4.5429e-13
5746.37 4.5658e-13
5747.0 4.5702e-13
5747.64 4.5643e-13
5748.27 4.5746e-13
5748.91 4.588e-13
5749.54 4.5565e-13
5750.18 4.555e-13
5750.82 4.587e-13
5751.45 4.5632e-13
5752.09 4.5284e-13
5752.72 4.5343e-13
5753.36 4.6029e-13
5753.99 4.597e-13
5754.63 4.5497e-13
5755.27 4.5643e-13
5755.9 4.5989e-13
5756.54 4.5594e-13
5757.17 4.5712e-13
5757.81 4.5916e-13
5758.44 4.5795e-13
5759.08 4.5624e-13
5759.71 4.6584e-13
5760.35 4.6269e-13
5760.99 4.5834e-13
5761.62 4.6308e-13
5762.26 4.637e-13
5762.89 4.6284e-13
5763.53 4.655e-13
5764.16 4.689e-13
5764.8 4.6661e-13
5765.44 4.6578e-13
5766.07 4.6827e-13
5766.71 4.7081e-13
5767.34 4.6825e-13
5767.98 4.6492e-13
5768.61 4.6658e-13
5769.25 4.6977e-13
5769.88 4.6828e-13
5770.52 4.7302e-13
5771.16 4.6982e-13
5771.79 4.6906e-13
5772.43 4.6826e-13
5773.06 4.708e-13
5773.7 4.7246e-13
5774.33 4.7212e-13
5774.97 4.7048e-13
5775.61 4.7071e-13
5776.24 4.6971e-13
5776.88 4.7075e-13
5777.51 4.6992e-13
5778.15 4.7084e-13
5778.78 4.7221e-13
5779.42 4.6959e-13
5780.05 4.7047e-13
5780.69 4.7023e-13
5781.33 4.6761e-13
5781.96 4.7093e-13
5782.6 4.7629e-13
5783.23 4.7765e-13
5783.87 4.7532e-13
5784.5 4.7561e-13
5785.14 4.7707e-13
5785.78 4.7694e-13
5786.41 4.7618e-13
5787.05 4.7625e-13
5787.68 4.8013e-13
5788.32 4.8353e-13
5788.95 4.8103e-13
5789.59 4.779e-13
5790.22 4.777e-13
5790.86 4.8002e-13
5791.5 4.8074e-13
5792.13 4.7883e-13
5792.77 4.795e-13
5793.4 4.8279e-13
5794.04 4.8345e-13
5794.67 4.8377e-13
5795.31 4.7814e-13
5795.95 4.8133e-13
5796.58 4.8501e-13
5797.22 4.7988e-13
5797.85 4.7814e-13
5798.49 4.8102e-13
5799.12 4.8359e-13
5799.76 4.8125e-13
5800.39 4.8398e-13
5801.03 4.9058e-13
5801.67 4.8694e-13
5802.3 4.8347e-13
5802.94 4.8163e-13
5803.57 4.8328e-13
5804.21 4.8878e-13
5804.84 4.8554e-13
5805.48 4.8094e-13
5806.12 4.8041e-13
5806.75 4.8044e-13
5807.39 4.836e-13
5808.02 4.8342e-13
5808.66 4.7891e-13
5809.29 4.7951e-13
5809.93 4.82e-13
5810.56 4.8225e-13
5811.2 4.8181e-13
5811.84 4.7974e-13
5812.47 4.7996e-13
5813.11 4.8135e-13
5813.74 4.811e-13
5814.38 4.8342e-13
5815.01 4.8416e-13
5815.65 4.8418e-13
5816.29 4.8519e-13
5816.92 4.8411e-13
5817.56 4.82e-13
5818.19 4.8384e-13
5818.83 4.844e-13
5819.46 4.7884e-13
5820.1 4.8029e-13
5820.73 4.835e-13
5821.37 4.8179e-13
5822.01 4.825e-13
5822.64 4.7912e-13
5823.28 4.7699e-13
5823.91 4.8194e-13
5824.55 4.8331e-13
5825.18 4.8257e-13
5825.82 4.8094e-13
5826.46 4.8045e-13
5827.09 4.8027e-13
5827.73 4.8314e-13
5828.36 4.8431e-13
5829.0 4.8089e-13
5829.63 4.7711e-13
5830.27 4.7727e-13
5830.9 4.8163e-13
5831.54 4.8078e-13
5832.18 4.8456e-13
5832.81 4.86e-13
5833.45 4.8513e-13
5834.08 4.8364e-13
5834.72 4.8235e-13
5835.35 4.8388e-13
5835.99 4.8565e-13
5836.63 4.8533e-13
5837.26 4.8068e-13
5837.9 4.7756e-13
5838.53 4.7796e-13
5839.17 4.7644e-13
5839.8 4.7614e-13
5840.44 4.7637e-13
5841.08 4.7662e-13
5841.71 4.7476e-13
5842.35 4.7598e-13
5842.98 4.8012e-13
5843.62 4.7766e-13
5844.25 4.763e-13
5844.89 4.7516e-13
5845.52 4.7354e-13
5846.16 4.7685e-13
5846.8 4.7926e-13
5847.43 4.8228e-13
5848.07 4.8036e-13
5848.7 4.7753e-13
5849.34 4.7891e-13
5849.97 4.7927e-13
5850.61 4.8039e-13
5851.25 4.7807e-13
5851.88 4.825e-13
5852.52 4.8216e-13
5853.15 4.7797e-13
5853.79 4.7905e-13
5854.42 4.7764e-13
5855.06 4.8157e-13
5855.69 4.8025e-13
5856.33 4.7904e-13
5856.97 4.8023e-13
5857.6 4.7981e-13
5858.24 4.7815e-13
5858.87 4.8065e-13
5859.51 4.7928e-13
5860.14 4.7661e-13
5860.78 4.7896e-13
5861.42 4.7855e-13
5862.05 4.7687e-13
5862.69 4.8061e-13
5863.32 4.8099e-13
5863.96 4.7404e-13
5864.59 4.7301e-13
5865.23 4.7293e-13
5865.86 4.7067e-13
5866.5 4.7215e-13
5867.14 4.733e-13
5867.77 4.742e-13
5868.41 4.7152e-13
5869.04 4.7206e-13
5869.68 4.7124e-13
5870.31 4.7453e-13
5870.95 4.7323e-13
5871.59 4.7353e-13
5872.22 4.7178e-13
5872.86 4.6997e-13
5873.49 4.6902e-13
5874.13 4.7638e-13
5874.76 4.7738e-13
5875.4 4.7016e-13
5876.03 4.6995e-13
5876.67 4.706e-13
5877.31 4.7065e-13
5877.94 4.6971e-13
5878.58 4.6898e-13
5879.21 4.6737e-13
5879.85 4.6647e-13
5880.48 4.6459e-13
5881.12 4.6541e-13
5881.76 4.6866e-13
5882.39 4.6706e-13
5883.03 4.6228e-13
5883.66 4.6582e-13
5884.3 4.6382e-13
5884.93 4.6076e-13
5885.57 4.6113e-13
5886.2 4.6054e-13
5886.84 4.5787e-13
5887.48 4.5499e-13
5888.11 4.4501e-13
5888.75 4.3462e-13
5889.38 4.2888e-13
5890.02 4.266e-13
5890.65 4.3063e-13
5891.29 4.441e-13
5891.93 4.5525e-13
5892.56 4.5597e-13
5893.2 4.5918e-13
5893.83 4.5456e-13
5894.47 4.4643e-13
5895.1 4.3725e-13
5895.74 4.2951e-13
5896.37 4.3355e-13
5897.01 4.4241e-13
5897.65 4.5335e-13
5898.28 4.5567e-13
5898.92 4.5958e-13
5899.55 4.5577e-13
5900.19 4.5405e-13
5900.82 4.5185e-13
5901.46 4.512e-13
5902.1 4.5233e-13
5902.73 4.5898e-13
5903.37 4.6241e-13
5904.0 4.6073e-13
5904.64 4.6427e-13
5905.27 4.6231e-13
5905.91 4.5866e-13
5906.54 4.6002e-13
5907.18 4.6241e-13
5907.82 4.5845e-13
5908.45 4.5405e-13
5909.09 4.539e-13
5909.72 4.5654e-13
5910.36 4.542e-13
5910.99 4.5337e-13
5911.63 4.5389e-13
5912.27 4.5685e-13
5912.9 4.5133e-13
5913.54 4.5331e-13
5914.17 4.5892e-13
5914.81 4.5704e-13
5915.44 4.5361e-13
5916.08 4.5569e-13
5916.71 4.4848e-13
5917.35 4.5253e-13
5917.99 4.5343e-13
5918.62 4.5252e-13
5919.26 4.494e-13
5919.89 4.4916e-13
5920.53 4.4854e-13
5921.16 4.5241e-13
5921.8 4.5621e-13
5922.44 4.5258e-13
5923.07 4.5102e-13
5923.71 4.5114e-13
5924.34 4.5042e-13
5924.98 4.4739e-13
5925.61 4.5284e-13
5926.25 4.5374e-13
5926.89 4.5396e-13
5927.52 4.5383e-13
5928.16 4.537e-13
5928.79 4.5364e-13
5929.43 4.545e-13
5930.06 4.5302e-13
5930.7 4.5307e-13
5931.33 4.5006e-13
5931.97 4.5184e-13
5932.61 4.5158e-13
5933.24 4.528e-13
5933.88 4.5298e-13
5934.51 4.4982e-13
5935.15 4.5037e-13
5935.78 4.4756e-13
5936.42 4.4668e-13
5937.06 4.4823e-13
5937.69 4.5061e-13
5938.33 4.4762e-13
5938.96 4.4566e-13
5939.6 4.4315e-13
5940.23 4.451e-13
5940.87 4.402e-13
5941.5 4.4194e-13
5942.14 4.3979e-13
5942.78 4.379e-13
5943.41 4.4112e-13
5944.05 4.4172e-13
5944.68 4.4577e-13
5945.32 4.4446e-13
5945.95 4.3838e-13
5946.59 4.4065e-13
5947.23 4.4297e-13
5947.86 4.409e-13
5948.5 4.3891e-13
5949.13 4.4114e-13
5949.77 4.4045e-13
5950.4 4.4022e-13
5951.04 4.4069e-13
5951.67 4.4448e-13
5952.31 4.4279e-13
5952.95 4.4082e-13
5953.58 4.4019e-13
5954.22 4.3846e-13
5954.85 4.3799e-13
5955.49 4.3653e-13
5956.12 4.3611e-13
5956.76 4.405e-13
5957.4 4.3836e-13
5958.03 4.3477e-13
5958.67 4.3537e-13
5959.3 4.3259e-13
5959.94 4.3285e-13
5960.57 4.3499e-13
5961.21 4.3652e-13
5961.84 4.3603e-13
5962.48 4.4025e-13
5963.12 4.383e-13
5963.75 4.351e-13
5964.39 4.3331e-13
5965.02 4.3646e-13
5965.66 4.3309e-13
5966.29 4.3177e-13
5966.93 4.3065e-13
5967.57 4.3092e-13
5968.2 4.297e-13
5968.84 4.3309e-13
5969.47 4.3375e-13
5970.11 4.3361e-13
5970.74 4.3546e-13
5971.38 4.3441e-13
5972.01 4.3409e-13
5972.65 4.3286e-13
5973.29 4.3519e-13
5973.92 4.3472e-13
5974.56 4.3673e-13
5975.19 4.3638e-13
5975.83 4.3619e-13
5976.46 4.3706e-13
5977.1 4.324e-13
5977.74 4.3327e-13
5978.37 4.3155e-13
5979.01 4.3327e-13
5979.64 4.3323e-13
5980.28 4.343e-13
5980.91 4.3712e-13
5981.55 4.3335e-13
5982.18 4.3201e-13
5982.82 4.32e-13
5983.46 4.3159e-13
5984.09 4.3116e-13
5984.73 4.3041e-13
5985.36 4.2939e-13
5986.0 4.3111e-13
5986.63 4.3076e-13
5987.27 4.2903e-13
5987.91 4.2954e-13
5988.54 4.3124e-13
5989.18 4.3243e-13
5989.81 4.3085e-13
5990.45 4.2886e-13
5991.08 4.266e-13
5991.72 4.2841e-13
5992.35 4.2654e-13
5992.99 4.256e-13
5993.63 4.2763e-13
5994.26 4.2958e-13
5994.9 4.2701e-13
5995.53 4.2482e-13
5996.17 4.2789e-13
5996.8 4.2946e-13
5997.44 4.2673e-13
5998.08 4.2544e-13
5998.71 4.2739e-13
5999.35 4.2821e-13
5999.98 4.3198e-13
6000.62 4.2897e-13
6001.25 4.2945e-13
6001.89 4.2867e-13
6002.52 4.2789e-13
6003.16 4.2455e-13
6003.8 4.267e-13
6004.43 4.3115e-13
6005.07 4.3096e-13
6005.7 4.3019e-13
6006.34 4.2828e-13
6006.97 4.2657e-13
6007.61 4.245e-13
6008.25 4.2351e-13
6008.88 4.2279e-13
6009.52 4.2456e-13
6010.15 4.2399e-13
6010.79 4.2339e-13
6011.42 4.2391e-13
6012.06 4.2507e-13
6012.7 4.2527e-13
6013.33 4.2418e-13
6013.97 4.2314e-13
6014.6 4.2255e-13
6015.24 4.2243e-13
6015.87 4.224e-13
6016.51 4.2282e-13
6017.14 4.2236e-13
6017.78 4.2123e-13
6018.42 4.2065e-13
6019.05 4.21e-13
6019.69 4.2117e-13
6020.32 4.2143e-13
6020.96 4.225e-13
6021.59 4.2033e-13
6022.23 4.1943e-13
6022.87 4.2294e-13
6023.5 4.185e-13
6024.14 4.1859e-13
6024.77 4.1907e-13
6025.41 4.1799e-13
6026.04 4.1918e-13
6026.68 4.158e-13
6027.31 4.1772e-13
6027.95 4.2038e-13
6028.59 4.1918e-13
6029.22 4.2034e-13
6029.86 4.1799e-13
6030.49 4.2114e-13
6031.13 4.2149e-13
6031.76 4.1522e-13
6032.4 4.1621e-13
6033.04 4.177e-13
6033.67 4.17e-13
6034.31 4.1602e-13
6034.94 4.1677e-13
6035.58 4.1668e-13
6036.21 4.1483e-13
6036.85 4.1698e-13
6037.48 4.1805e-13
6038.12 4.1614e-13
6038.76 4.1624e-13
6039.39 4.1903e-13
6040.03 4.1794e-13
6040.66 4.1484e-13
6041.3 4.1516e-13
6041.93 4.1587e-13
6042.57 4.1798e-13
6043.21 4.1848e-13
6043.84 4.1634e-13
6044.48 4.1514e-13
6045.11 4.1436e-13
6045.75 4.1862e-13
6046.38 4.1236e-13
6047.02 4.1046e-13
6047.65 4.1513e-13
6048.29 4.1753e-13
6048.93 4.1767e-13
6049.56 4.16e-13
6050.2 4.1588e-13
6050.83 4.179e-13
6051.47 4.1646e-13
6052.1 4.1581e-13
6052.74 4.1589e-13
6053.38 4.133e-13
6054.01 4.1675e-13
6054.65 4.1583e-13
6055.28 4.1441e-13
6055.92 4.1482e-13
6056.55 4.1416e-13
6057.19 4.1564e-13
6057.82 4.1657e-13
6058.46 4.1523e-13
6059.1 4.149e-13
6059.73 4.13e-13
6060.37 4.132e-13
6061.0 4.1364e-13
6061.64 4.1445e-13
6062.27 4.1603e-13
6062.91 4.1392e-13
6063.55 4.1392e-13
6064.18 4.1229e-13
6064.82 4.1165e-13
6065.45 4.1234e-13
6066.09 4.1405e-13
6066.72 4.1356e-13
6067.36 4.1223e-13
6067.99 4.0908e-13
6068.63 4.0992e-13
6069.27 4.1204e-13
6069.9 4.1188e-13
6070.54 4.105e-13
6071.17 4.0993e-13
6071.81 4.1105e-13
6072.44 4.0958e-13
6073.08 4.0694e-13
6073.72 4.0772e-13
6074.35 4.0975e-13
6074.99 4.0623e-13
6075.62 4.0513e-13
6076.26 4.052e-13
6076.89 4.0593e-13
6077.53 4.0637e-13
6078.16 4.0962e-13
6078.8 4.0831e-13
6079.44 4.0295e-13
6080.07 4.035e-13
6080.71 4.0606e-13
6081.34 4.0822e-13
6081.98 4.0876e-13
6082.61 4.1062e-13
6083.25 4.0892e-13
6083.89 4.0455e-13
6084.52 4.0451e-13
6085.16 4.0686e-13
6085.79 4.0646e-13
6086.43 4.0626e-13
6087.06 4.0841e-13
6087.7 4.0688e-13
6088.33 4.0259e-13
6088.97 4.009e-13
6089.61 4.0056e-13
6090.24 3.9776e-13
6090.88 4.0476e-13
6091.51 4.0808e-13
6092.15 4.0123e-13
6092.78 4.0128e-13
6093.42 4.0322e-13
6094.06 4.019e-13
6094.69 3.9976e-13
6095.33 4.004e-13
6095.96 3.999e-13
6096.6 4.0136e-13
6097.23 4.0196e-13
6097.87 4.0122e-13
6098.5 4.0182e-13
6099.14 3.9957e-13
6099.78 3.9967e-13
6100.41 3.9984e-13
6101.05 4.0067e-13
6101.68 4.0018e-13
6102.32 3.975e-13
6102.95 3.9762e-13
6103.59 3.9518e-13
6104.23 3.8966e-13
6104.86 3.9158e-13
6105.5 3.9357e-13
6106.13 3.8959e-13
6106.77 3.887e-13
6107.4 3.8888e-13
6108.04 3.8738e-13
6108.68 3.8498e-13
6109.31 3.8571e-13
6109.95 3.8477e-13
6110.58 3.8646e-13
6111.22 3.8904e-13
6111.85 3.8965e-13
6112.49 3.869e-13
6113.12 3.841e-13
6113.76 3.8752e-13
6114.4 3.8638e-13
6115.03 3.8603e-13
6115.67 3.8425e-13
6116.3 3.8368e-13
6116.94 3.8668e-13
6117.57 3.866e-13
6118.21 3.8651e-13
6118.85 3.8739e-13
6119.48 3.8757e-13
6120.12 3.8417e-13
6120.75 3.8528e-13
6121.39 3.8317e-13
6122.02 3.834e-13
6122.66 3.8339e-13
6123.29 3.8062e-13
6123.93 3.8053e-13
6124.57 3.8086e-13
6125.2 3.7764e-13
6125.84 3.7856e-13
6126.47 3.7725e-13
6127.11 3.775e-13
6127.74 3.776e-13
6128.38 3.7561e-13
6129.02 3.7543e-13
6129.65 3.7613e-13
6130.29 3.7427e-13
6130.92 3.7465e-13
6131.56 3.7332e-13
6132.19 3.7324e-13
6132.83 3.7394e-13
6133.46 3.7531e-13
6134.1 3.754e-13
6134.74 3.7188e-13
6135.37 3.7804e-13
6136.01 3.7805e-13
6136.64 3.7996e-13
6137.28 3.7621e-13
6137.91 3.7126e-13
6138.55 3.7319e-13
6139.19 3.7552e-13
6139.82 3.7294e-13
6140.46 3.6787e-13
6141.09 3.6453e-13
6141.73 3.6554e-13
6142.36 3.6695e-13
6143.0 3.6785e-13
6143.63 3.6838e-13
6144.27 3.6381e-13
6144.91 3.6178e-13
6145.54 3.6376e-13
6146.18 3.621e-13
6146.81 3.6246e-13
6147.45 3.6384e-13
6148.08 3.6398e-13
6148.72 3.6314e-13
6149.36 3.6267e-13
6149.99 3.6126e-13
6150.63 3.6113e-13
6151.26 3.6236e-13
6151.9 3.6129e-13
6152.53 3.6025e-13
6153.17 3.6253e-13
6153.8 3.6461e-13
6154.44 3.6386e-13
6155.08 3.6123e-13
6155.71 3.6169e-13
6156.35 3.6438e-13
6156.98 3.6559e-13
6157.62 3.6818e-13
6158.25 3.6783e-13
6158.89 3.6806e-13
6159.53 3.6527e-13
6160.16 3.668e-13
6160.8 3.6958e-13
6161.43 3.7311e-13
6162.07 3.7013e-13
6162.7 3.6753e-13
6163.34 3.6568e-13
6163.97 3.6409e-13
6164.61 3.6221e-13
6165.25 3.6249e-13
6165.88 3.6129e-13
6166.52 3.6625e-13
6167.15 3.6675e-13
6167.79 3.6683e-13
6168.42 3.6195e-13
6169.06 3.6156e-13
6169.7 3.5984e-13
6170.33 3.5835e-13
6170.97 3.5681e-13
6171.6 3.6131e-13
6172.24 3.601e-13
6172.87 3.6022e-13
6173.51 3.5672e-13
6174.14 3.5879e-13
6174.78 3.6005e-13
6175.42 3.5869e-13
6176.05 3.5722e-13
6176.69 3.5864e-13
6177.32 3.571e-13
6177.96 3.549e-13
6178.59 3.6199e-13
6179.23 3.5843e-13
6179.87 3.5705e-13
6180.5 3.5817e-13
6181.14 3.5661e-13
6181.77 3.5743e-13
6182.41 3.5788e-13
6183.04 3.5834e-13
6183.68 3.5743e-13
6184.31 3.6029e-13
6184.95 3.6148e-13
6185.59 3.5864e-13
6186.22 3.6215e-13
6186.86 3.6114e-13
6187.49 3.5921e-13
6188.13 3.6036e-13
6188.76 3.6149e-13
6189.4 3.6161e-13
6190.04 3.6263e-13
6190.67 3.5999e-13
6191.31 3.5721e-13
6191.94 3.6144e-13
6192.58 3.6008e-13
6193.21 3.623e-13
6193.85 3.6158e-13
6194.49 3.609e-13
6195.12 3.6134e-13
6195.76 3.6198e-13
6196.39 3.6102e-13
6197.03 3.5815e-13
6197.66 3.5786e-13
6198.3 3.582e-13
6198.93 3.5628e-13
6199.57 3.5688e-13
6200.21 3.5923e-13
6200.84 3.5811e-13
6201.48 3.5503e-13
6202.11 3.5607e-13
6202.75 3.5701e-13
6203.38 3.5669e-13
6204.02 3.5538e-13
6204.66 3.5402e-13
6205.29 3.5789e-13
6205.93 3.5661e-13
6206.56 3.5681e-13
6207.2 3.5928e-13
6207.83 3.6347e-13
6208.47 3.626e-13
6209.1 3.605e-13
6209.74 3.613e-13
6210.38 3.6255e-13
6211.01 3.6442e-13
6211.65 3.6427e-13
6212.28 3.6029e-13
6212.92 3.6099e-13
6213.55 3.6611e-13
6214.19 3.6571e-13
6214.83 3.6539e-13
6215.46 3.6616e-13
6216.1 3.6369e-13
6216.73 3.6343e-13
6217.37 3.6215e-13
6218.0 3.638e-13
6218.64 3.6534e-13
6219.27 3.6449e-13
6219.91 3.6244e-13
6220.55 3.6371e-13
6221.18 3.5976e-13
6221.82 3.6487e-13
6222.45 3.6714e-13
6223.09 3.6904e-13
6223.72 3.667e-13
6224.36 3.6395e-13
6225.0 3.6799e-13
6225.63 3.6949e-13
6226.27 3.6698e-13
6226.9 3.6798e-13
6227.54 3.6703e-13
6228.17 3.6884e-13
6228.81 3.7269e-13
6229.44 3.7188e-13
6230.08 3.7184e-13
6230.72 3.6964e-13
6231.35 3.6913e-13
6231.99 3.7017e-13
6232.62 3.6848e-13
6233.26 3.6983e-13
6233.89 3.7215e-13
6234.53 3.7301e-13
6235.17 3.6943e-13
6235.8 3.6961e-13
6236.44 3.7285e-13
6237.07 3.7445e-13
6237.71 3.7512e-13
6238.34 3.7445e-13
6238.98 3.7091e-13
6239.61 3.6919e-13
6240.25 3.7068e-13
6240.89 3.7006e-13
6241.52 3.7159e-13
6242.16 3.7548e-13
6242.79 3.7659e-13
6243.43 3.7303e-13
6244.06 3.7073e-13
6244.7 3.7424e-13
6245.34 3.7647e-13
6245.97 3.7658e-13
6246.61 3.7708e-13
6247.24 3.766e-13
6247.88 3.7472e-13
6248.51 3.7425e-13
6249.15 3.7643e-13
6249.78 3.7674e-13
6250.42 3.7713e-13
6251.06 3.7699e-13
6251.69 3.7747e-13
6252.33 3.7842e-13
6252.96 3.7647e-13
6253.6 3.7472e-13
6254.23 3.7422e-13
6254.87 3.7636e-13
6255.51 3.7829e-13
6256.14 3.7753e-13
6256.78 3.7562e-13
6257.41 3.7693e-13
6258.05 3.7812e-13
6258.68 3.7866e-13
6259.32 3.7978e-13
6259.95 3.7505e-13
6260.59 3.7414e-13
6261.23 3.7756e-13
6261.86 3.7918e-13
6262.5 3.7706e-13
6263.13 3.7715e-13
6263.77 3.7658e-13
6264.4 3.741e-13
6265.04 3.7176e-13
6265.68 3.7695e-13
6266.31 3.7952e-13
6266.95 3.7796e-13
6267.58 3.7402e-13
6268.22 3.7355e-13
6268.85 3.7179e-13
6269.49 3.7139e-13
6270.12 3.7319e-13
6270.76 3.7231e-13
6271.4 3.7178e-13
6272.03 3.7088e-13
6272.67 3.7049e-13
6273.3 3.7623e-13
6273.94 3.76e-13
6274.57 3.7154e-13
6275.21 3.7106e-13
6275.85 3.7089e-13
6276.48 3.6507e-13
6277.12 3.5929e-13
6277.75 3.5474e-13
6278.39 3.5252e-13
6279.02 3.5425e-13
6279.66 3.5788e-13
6280.3 3.6115e-13
6280.93 3.6535e-13
6281.57 3.686e-13
6282.2 3.7026e-13
6282.84 3.7118e-13
6283.47 3.7141e-13
6284.11 3.6966e-13
6284.74 3.7376e-13
6285.38 3.7751e-13
6286.02 3.7715e-13
6286.65 3.8114e-13
6287.29 3.769e-13
6287.92 3.7905e-13
6288.56 3.7792e-13
6289.19 3.7811e-13
6289.83 3.7513e-13
6290.47 3.7325e-13
6291.1 3.7129e-13
6291.74 3.7394e-13
6292.37 3.7276e-13
6293.01 3.7139e-13
6293.64 3.7347e-13
6294.28 3.7502e-13
6294.91 3.7472e-13
6295.55 3.7196e-13
6296.19 3.7379e-13
6296.82 3.7935e-13
6297.46 3.7333e-13
6298.09 3.7463e-13
6298.73 3.7353e-13
6299.36 3.7459e-13
6300.0 3.7587e-13
6300.64 3.7129e-13
6301.27 3.7317e-13
6301.91 3.7314e-13
6302.54 3.7083e-13
6303.18 3.6865e-13
6303.81 3.6949e-13
6304.45 3.7114e-13
6305.08 3.7366e-13
6305.72 3.6943e-13
6306.36 3.7034e-13
6306.99 3.6714e-13
6307.63 3.6844e-13
6308.26 3.7132e-13
6308.9 3.6759e-13
6309.53 3.6846e-13
6310.17 3.6612e-13
6310.81 3.6649e-13
6311.44 3.6738e-13
6312.08 3.6555e-13
6312.71 3.6672e-13
6313.35 3.6483e-13
6313.98 3.6888e-13
6314.62 3.6666e-13
6315.25 3.608e-13
6315.89 3.6018e-13
6316.53 3.6084e-13
6317.16 3.6202e-13
6317.8 3.6478e-13
6318.43 3.6394e-13
6319.07 3.5943e-13
6319.7 3.5927e-13
6320.34 3.6104e-13
6320.98 3.6006e-13
6321.61 3.6049e-13
6322.25 3.5969e-13
6322.88 3.5796e-13
6323.52 3.5725e-13
6324.15 3.5957e-13
6324.79 3.5968e-13
6325.42 3.5778e-13
6326.06 3.5801e-13
6326.7 3.5647e-13
6327.33 3.553e-13
6327.97 3.5482e-13
6328.6 3.5339e-13
6329.24 3.5114e-13
6329.87 3.5295e-13
6330.51 3.5568e-13
6331.15 3.5471e-13
6331.78 3.5365e-13
6332.42 3.5357e-13
6333.05 3.5568e-13
6333.69 3.5465e-13
6334.32 3.5161e-13
6334.96 3.5344e-13
6335.59 3.5669e-13
6336.23 3.5559e-13
6336.87 3.5593e-13
6337.5 3.5536e-13
6338.14 3.513e-13
6338.77 3.509e-13
6339.41 3.5458e-13
6340.04 3.5352e-13
6340.68 3.5276e-13
6341.32 3.541e-13
6341.95 3.5297e-13
6342.59 3.523e-13
6343.22 3.5346e-13
6343.86 3.5205e-13
6344.49 3.5081e-13
6345.13 3.5065e-13
6345.76 3.5085e-13
6346.4 3.4949e-13
6347.04 3.5011e-13
6347.67 3.5241e-13
6348.31 3.5271e-13
6348.94 3.4905e-13
6349.58 3.4999e-13
6350.21 3.511e-13
6350.85 3.4827e-13
6351.49 3.4729e-13
6352.12 3.491e-13
6352.76 3.5473e-13
6353.39 3.5499e-13
6354.03 3.5386e-13
6354.66 3.5251e-13
6355.3 3.5103e-13
6355.93 3.5244e-13
6356.57 3.5216e-13
6357.21 3.5341e-13
6357.84 3.5277e-13
6358.48 3.5142e-13
6359.11 3.5276e-13
6359.75 3.5037e-13
6360.38 3.5133e-13
6361.02 3.5387e-13
6361.66 3.5429e-13
6362.29 3.545e-13
6362.93 3.5039e-13
6363.56 3.5209e-13
6364.2 3.5833e-13
6364.83 3.5448e-13
6365.47 3.5343e-13
6366.1 3.5612e-13
6366.74 3.5534e-13
6367.38 3.5618e-13
6368.01 3.5859e-13
6368.65 3.5911e-13
6369.28 3.5715e-13
6369.92 3.5613e-13
6370.55 3.566e-13
6371.19 3.5941e-13
6371.83 3.6143e-13
6372.46 3.6062e-13
6373.1 3.6245e-13
6373.73 3.6035e-13
6374.37 3.6059e-13
6375.0 3.6052e-13
6375.64 3.6055e-13
6376.28 3.5959e-13
6376.91 3.6024e-13
6377.55 3.6019e-13
6378.18 3.5864e-13
6378.82 3.5499e-13
6379.45 3.5779e-13
6380.09 3.6162e-13
6380.72 3.6244e-13
6381.36 3.6182e-13
6382.0 3.6286e-13
6382.63 3.6268e-13
6383.27 3.6565e-13
6383.9 3.6604e-13
6384.54 3.6447e-13
6385.17 3.676e-13
6385.81 3.6713e-13
6386.45 3.6756e-13
6387.08 3.6751e-13
6387.72 3.6667e-13
6388.35 3.7171e-13
6388.99 3.7119e-13
6389.62 3.7002e-13
6390.26 3.7259e-13
6390.89 3.727e-13
6391.53 3.7394e-13
6392.17 3.7161e-13
6392.8 3.7475e-13
6393.44 3.7625e-13
6394.07 3.755e-13
6394.71 3.7343e-13
6395.34 3.7467e-13
6395.98 3.744e-13
6396.62 3.7963e-13
6397.25 3.7809e-13
6397.89 3.7946e-13
6398.52 3.7859e-13
6399.16 3.8036e-13
6399.79 3.7939e-13
6400.43 3.7833e-13
6401.06 3.8073e-13
6401.7 3.787e-13
6402.34 3.8381e-13
6402.97 3.8315e-13
6403.61 3.8071e-13
6404.24 3.8126e-13
6404.88 3.8056e-13
6405.51 3.8183e-13
6406.15 3.8282e-13
6406.79 3.8282e-13
6407.42 3.8613e-13
6408.06 3.865e-13
6408.69 3.8836e-13
6409.33 3.8933e-13
6409.96 3.9086e-13
6410.6 3.9299e-13
6411.23 3.9367e-13
6411.87 3.9292e-13
6412.51 3.9466e-13
6413.14 3.9349e-13
6413.78 3.9061e-13
6414.41 3.9099e-13
6415.05 3.9541e-13
6415.68 3.9476e-13
6416.32 3.953e-13
6416.96 3.9761e-13
6417.59 4.0009e-13
6418.23 3.9945e-13
6418.86 4.0176e-13
6419.5 4.063e-13
6420.13 4.0484e-13
6420.77 4.0275e-13
6421.4 4.027e-13
6422.04 4.0155e-13
6422.68 4.0438e-13
6423.31 4.0618e-13
6423.95 4.057e-13
6424.58 4.0725e-13
6425.22 4.072e-13
6425.85 4.0516e-13
6426.49 4.0494e-13
6427.13 4.0841e-13
6427.76 4.1067e-13
6428.4 4.1291e-13
6429.03 4.1669e-13
6429.67 4.1746e-13
6430.3 4.1577e-13
6430.94 4.1677e-13
6431.57 4.1958e-13
6432.21 4.1925e-13
6432.85 4.1891e-13
6433.48 4.21e-13
6434.12 4.2337e-13
6434.75 4.2363e-13
6435.39 4.2396e-13
6436.02 4.2462e-13
6436.66 4.236e-13
6437.3 4.2718e-13
6437.93 4.2984e-13
6438.57 4.2775e-13
6439.2 4.276e-13
6439.84 4.2873e-13
6440.47 4.3383e-13
6441.11 4.3369e-13
6441.74 4.3183e-13
6442.38 4.3574e-13
6443.02 4.3423e-13
6443.65 4.3866e-13
6444.29 4.3705e-13
6444.92 4.3739e-13
6445.56 4.3711e-13
6446.19 4.4035e-13
6446.83 4.4008e-13
6447.47 4.4418e-13
6448.1 4.4524e-13
6448.74 4.4718e-13
6449.37 4.4648e-13
6450.01 4.5026e-13
6450.64 4.5181e-13
6451.28 4.5263e-13
6451.91 4.506e-13
6452.55 4.5064e-13
6453.19 4.538e-13
6453.82 4.5448e-13
6454.46 4.5198e-13
6455.09 4.5349e-13
6455.73 4.5511e-13
6456.36 4.5682e-13
6457.0 4.561e-13
6457.64 4.5724e-13
6458.27 4.553e-13
6458.91 4.5615e-13
6459.54 4.6264e-13
6460.18 4.6134e-13
6460.81 4.5759e-13
6461.45 4.6145e-13
6462.09 4.5926e-13
6462.72 4.6035e-13
6463.36 4.613e-13
6463.99 4.6382e-13
6464.63 4.6091e-13
6465.26 4.6154e-13
6465.9 4.6014e-13
6466.53 4.6168e-13
6467.17 4.6084e-13
6467.81 4.6102e-13
6468.44 4.6041e-13
6469.08 4.639e-13
6469.71 4.6314e-13
6470.35 4.6369e-13
6470.98 4.6078e-13
6471.62 4.6219e-13
6472.26 4.6428e-13
6472.89 4.6241e-13
6473.53 4.6003e-13
6474.16 4.5786e-13
6474.8 4.5951e-13
6475.43 4.5832e-13
6476.07 4.5958e-13
6476.7 4.6132e-13
6477.34 4.6398e-13
6477.98 4.6631e-13
6478.61 4.633e-13
6479.25 4.6399e-13
6479.88 4.6437e-13
6480.52 4.6562e-13
6481.15 4.644e-13
6481.79 4.6537e-13
6482.43 4.6592e-13
6483.06 4.6401e-13
6483.7 4.6195e-13
6484.33 4.6526e-13
6484.97 4.6841e-13
6485.6 4.6938e-13
6486.24 4.6937e-13
6486.87 4.7211e-13
6487.51 4.7343e-13
6488.15 4.7257e-13
6488.78 4.7322e-13
6489.42 4.7601e-13
6490.05 4.7744e-13
6490.69 4.7458e-13
6491.32 4.7611e-13
6491.96 4.778e-13
6492.6 4.7582e-13
6493.23 4.7761e-13
6493.87 4.8098e-13
6494.5 4.7848e-13
6495.14 4.7449e-13
6495.77 4.7594e-13
6496.41 4.755e-13
6497.04 4.7326e-13
6497.68 4.7607e-13
6498.32 4.7633e-13
6498.95 4.7396e-13
6499.59 4.7398e-13
6500.22 4.7192e-13
6500.86 4.7072e-13
6501.49 4.7204e-13
6502.13 4.7134e-13
6502.77 4.7018e-13
6503.4 4.6988e-13
6504.04 4.7167e-13
6504.67 4.7076e-13
6505.31 4.6755e-13
6505.94 4.7242e-13
6506.58 4.7429e-13
6507.21 4.7147e-13
6507.85 4.6996e-13
6508.49 4.704e-13
6509.12 4.7222e-13
6509.76 4.7525e-13
6510.39 4.7242e-13
6511.03 4.7056e-13
6511.66 4.6923e-13
6512.3 4.6988e-13
6512.94 4.7279e-13
6513.57 4.6815e-13
6514.21 4.6565e-13
6514.84 4.6553e-13
6515.48 4.6623e-13
6516.11 4.6165e-13
6516.75 4.6415e-13
6517.38 4.6543e-13
6518.02 4.6437e-13
6518.66 4.6623e-13
6519.29 4.6971e-13
6519.93 4.6862e-13
6520.56 4.7107e-13
6521.2 4.7148e-13
6521.83 4.7068e-13
6522.47 4.7077e-13
6523.11 4.7044e-13
6523.74 4.6837e-13
6524.38 4.6814e-13
6525.01 4.6773e-13
6525.65 4.6902e-13
6526.28 4.6689e-13
6526.92 4.6312e-13
6527.55 4.6295e-13
6528.19 4.6815e-13
6528.83 4.6929e-13
6529.46 4.6637e-13
6530.1 4.6541e-13
6530.73 4.6706e-13
6531.37 4.6158e-13
6532.0 4.6126e-13
6532.64 4.6193e-13
6533.28 4.6253e-13
6533.91 4.6603e-13
6534.55 4.6263e-13
6535.18 4.6432e-13
6535.82 4.6466e-13
6536.45 4.6412e-13
6537.09 4.6356e-13
6537.72 4.651e-13
6538.36 4.6544e-13
6539.0 4.6412e-13
6539.63 4.6578e-13
6540.27 4.6435e-13
6540.9 4.61e-13
6541.54 4.6217e-13
6542.17 4.6035e-13
6542.81 4.6023e-13
6543.45 4.5895e-13
6544.08 4.6035e-13
6544.72 4.5679e-13
6545.35 4.5669e-13
6545.99 4.5624e-13
6546.62 4.5755e-13
6547.26 4.5802e-13
6547.9 4.6052e-13
6548.53 4.554e-13
6549.17 4.56e-13
6549.8 4.5977e-13
6550.44 4.5947e-13
6551.07 4.5476e-13
6551.71 4.5577e-13
6552.34 4.5642e-13
6552.98 4.5244e-13
6553.62 4.5334e-13
6554.25 4.5612e-13
6554.89 4.5792e-13
6555.52 4.5667e-13
6556.16 4.5533e-13
6556.79 4.5715e-13
6557.43 4.5859e-13
6558.07 4.5623e-13
6558.7 4.5552e-13
6559.34 4.5717e-13
6559.97 4.5707e-13
6560.61 4.5591e-13
6561.24 4.5634e-13
6561.88 4.5329e-13
6562.51 4.5264e-13
6563.15 4.5513e-13
6563.79 4.5606e-13
6564.42 4.5426e-13
6565.06 4.5371e-13
6565.69 4.5581e-13
6566.33 4.5624e-13
6566.96 4.5561e-13
6567.6 4.5855e-13
6568.24 4.5597e-13
6568.87 4.5215e-13
6569.51 4.5158e-13
6570.14 4.5178e-13
6570.78 4.5093e-13
6571.41 4.5309e-13
6572.05 4.575e-13
6572.68 4.5546e-13
6573.32 4.5245e-13
6573.96 4.5434e-13
6574.59 4.5393e-13
6575.23 4.501e-13
6575.86 4.5075e-13
6576.5 4.5064e-13
6577.13 4.5133e-13
6577.77 4.5254e-13
6578.41 4.5101e-13
6579.04 4.5258e-13
6579.68 4.5054e-13
6580.31 4.4769e-13
6580.95 4.487e-13
6581.58 4.4961e-13
6582.22 4.4992e-13
6582.85 4.4849e-13
6583.49 4.4889e-13
6584.13 4.5119e-13
6584.76 4.5095e-13
6585.4 4.5156e-13
6586.03 4.5016e-13
6586.67 4.517e-13
6587.3 4.5314e-13
6587.94 4.5312e-13
6588.58 4.5268e-13
6589.21 4.5143e-13
6589.85 4.5068e-13
6590.48 4.4997e-13
6591.12 4.4874e-13
6591.75 4.5017e-13
6592.39 4.5038e-13
6593.02 4.4742e-13
6593.66 4.4634e-13
6594.3 4.4639e-13
6594.93 4.4565e-13
6595.57 4.4723e-13
6596.2 4.4199e-13
6596.84 4.4262e-13
6597.47 4.4174e-13
6598.11 4.4313e-13
6598.75 4.3758e-13
6599.38 4.3884e-13
6600.02 4.372e-13
6600.65 4.4143e-13
6601.29 4.3887e-13
6601.92 4.3541e-13
6602.56 4.3682e-13
6603.19 4.3553e-13
6603.83 4.3514e-13
6604.47 4.3359e-13
6605.1 4.3185e-13
6605.74 4.3338e-13
6606.37 4.3353e-13
6607.01 4.3279e-13
6607.64 4.33e-13
6608.28 4.319e-13
6608.92 4.3583e-13
6609.55 4.3368e-13
6610.19 4.3268e-13
6610.82 4.2968e-13
6611.46 4.2966e-13
6612.09 4.3059e-13
6612.73 4.3047e-13
6613.36 4.2899e-13
6614.0 4.2859e-13
6614.64 4.3138e-13
6615.27 4.3284e-13
6615.91 4.3194e-13
6616.54 4.2875e-13
6617.18 4.2755e-13
6617.81 4.2805e-13
6618.45 4.2823e-13
6619.09 4.2842e-13
6619.72 4.2768e-13
6620.36 4.255e-13
6620.99 4.2428e-13
6621.63 4.2425e-13
6622.26 4.2193e-13
6622.9 4.2251e-13
6623.53 4.2282e-13
6624.17 4.2117e-13
6624.81 4.2128e-13
6625.44 4.206e-13
6626.08 4.1979e-13
6626.71 4.1871e-13
6627.35 4.2194e-13
6627.98 4.2356e-13
6628.62 4.2323e-13
6629.26 4.2298e-13
6629.89 4.1977e-13
6630.53 4.1957e-13
6631.16 4.2094e-13
6631.8 4.2084e-13
6632.43 4.2201e-13
6633.07 4.2051e-13
6633.71 4.171e-13
6634.34 4.1676e-13
6634.98 4.1759e-13
6635.61 4.1637e-13
6636.25 4.1589e-13
6636.88 4.1707e-13
6637.52 4.1722e-13
6638.15 4.1426e-13
6638.79 4.1408e-13
6639.43 4.1344e-13
6640.06 4.1225e-13
6640.7 4.1292e-13
6641.33 4.0948e-13
6641.97 4.1125e-13
6642.6 4.1075e-13
6643.24 4.1195e-13
6643.88 4.1224e-13
6644.51 4.0908e-13
6645.15 4.0742e-13
6645.78 4.0974e-13
6646.42 4.0888e-13
6647.05 4.0965e-13
6647.69 4.0726e-13
6648.32 4.0672e-13
6648.96 4.05e-13
6649.6 4.0624e-13
6650.23 4.0553e-13
6650.87 4.0493e-13
6651.5 4.036e-13
6652.14 4.0155e-13
6652.77 4.0125e-13
6653.41 4.0577e-13
6654.05 4.0584e-13
6654.68 4.0265e-13
6655.32 4.016e-13
6655.95 4.0155e-13
6656.59 4.0284e-13
6657.22 4.0052e-13
6657.86 4.0097e-13
6658.49 3.9808e-13
6659.13 3.9798e-13
6659.77 3.9964e-13
6660.4 4.0331e-13
6661.04 3.9805e-13
6661.67 3.9538e-13
6662.31 3.9706e-13
6662.94 4.001e-13
6663.58 3.988e-13
6664.22 3.9935e-13
6664.85 3.9916e-13
6665.49 3.9613e-13
6666.12 3.9942e-13
6666.76 3.9878e-13
6667.39 3.9755e-13
6668.03 4.0045e-13
6668.66 4.0127e-13
6669.3 3.9853e-13
6669.94 3.985e-13
6670.57 3.9734e-13
6671.21 3.9999e-13
6671.84 4.0072e-13
6672.48 3.9752e-13
6673.11 3.9884e-13
6673.75 3.9548e-13
6674.39 3.9478e-13
6675.02 3.9733e-13
6675.66 3.9605e-13
6676.29 3.9722e-13
6676.93 3.9819e-13
6677.56 3.9658e-13
6678.2 3.9225e-13
6678.83 3.8935e-13
6679.47 3.8874e-13
6680.11 3.9159e-13
6680.74 3.9257e-13
6681.38 3.8998e-13
6682.01 3.8877e-13
6682.65 3.896e-13
6683.28 3.8879e-13
6683.92 3.8847e-13
6684.56 3.9205e-13
6685.19 3.933e-13
6685.83 3.8993e-13
6686.46 3.8645e-13
6687.1 3.8919e-13
6687.73 3.9073e-13
6688.37 3.9076e-13
6689.0 3.8799e-13
6689.64 3.8796e-13
6690.28 3.8695e-13
6690.91 3.8843e-13
6691.55 3.8862e-13
6692.18 3.8797e-13
6692.82 3.8857e-13
6693.45 3.8814e-13
6694.09 3.8723e-13
6694.73 3.8719e-13
6695.36 3.9023e-13
6696.0 3.8681e-13
6696.63 3.8643e-13
6697.27 3.8593e-13
6697.9 3.8478e-13
6698.54 3.8511e-13
6699.17 3.8314e-13
6699.81 3.8852e-13
6700.45 3.8894e-13
6701.08 3.858e-13
6701.72 3.832e-13
6702.35 3.8356e-13
6702.99 3.8527e-13
6703.62 3.9056e-13
6704.26 3.8595e-13
6704.9 3.8319e-13
6705.53 3.8465e-13
6706.17 3.8333e-13
6706.8 3.8048e-13
6707.44 3.8662e-13
6708.07 3.8358e-13
6708.71 3.8289e-13
6709.34 3.8224e-13
6709.98 3.7986e-13
6710.62 3.8232e-13
6711.25 3.8209e-13
6711.89 3.8307e-13
6712.52 3.8103e-13
6713.16 3.832e-13
6713.79 3.8125e-13
6714.43 3.8127e-13
6715.07 3.831e-13
6715.7 3.8094e-13
6716.34 3.7836e-13
6716.97 3.7902e-13
6717.61 3.8161e-13
6718.24 3.789e-13
6718.88 3.776e-13
6719.51 3.8168e-13
6720.15 3.8024e-13
6720.79 3.7871e-13
6721.42 3.7999e-13
6722.06 3.7719e-13
6722.69 3.7731e-13
6723.33 3.7577e-13
6723.96 3.7453e-13
6724.6 3.7333e-13
6725.24 3.7558e-13
6725.87 3.7661e-13
6726.51 3.7576e-13
6727.14 3.7304e-13
6727.78 3.7354e-13
6728.41 3.7501e-13
6729.05 3.7349e-13
6729.69 3.7358e-13
6730.32 3.7531e-13
6730.96 3.7509e-13
6731.59 3.7378e-13
6732.23 3.7093e-13
6732.86 3.7091e-13
6733.5 3.7476e-13
6734.13 3.7445e-13
6734.77 3.7403e-13
6735.41 3.7412e-13
6736.04 3.7427e-13
6736.68 3.723e-13
6737.31 3.6822e-13
6737.95 3.6926e-13
6738.58 3.6781e-13
6739.22 3.6636e-13
6739.86 3.7016e-13
6740.49 3.701e-13
6741.13 3.6985e-13
6741.76 3.7055e-13
6742.4 3.677e-13
6743.03 3.6587e-13
6743.67 3.661e-13
6744.3 3.6844e-13
6744.94 3.6988e-13
6745.58 3.7055e-13
6746.21 3.6295e-13
6746.85 3.6762e-13
6747.48 3.7621e-13
6748.12 3.6723e-13
6748.75 3.6678e-13
6749.39 3.6811e-13
6750.03 3.6574e-13
6750.66 3.6363e-13
6751.3 3.6711e-13
6751.93 3.6526e-13
6752.57 3.6289e-13
6753.2 3.6663e-13
6753.84 3.6664e-13
6754.47 3.6558e-13
6755.11 3.6314e-13
6755.75 3.6444e-13
6756.38 3.6624e-13
6757.02 3.6703e-13
6757.65 3.6672e-13
6758.29 3.6176e-13
6758.92 3.6541e-13
6759.56 3.6553e-13
6760.2 3.6392e-13
6760.83 3.633e-13
6761.47 3.6327e-13
6762.1 3.6263e-13
6762.74 3.6395e-13
6763.37 3.6291e-13
6764.01 3.6109e-13
6764.64 3.6297e-13
6765.28 3.6388e-13
6765.92 3.6161e-13
6766.55 3.6076e-13
6767.19 3.6043e-13
6767.82 3.6131e-13
6768.46 3.604e-13
6769.09 3.6132e-13
6769.73 3.6206e-13
6770.37 3.5988e-13
6771.0 3.5851e-13
6771.64 3.5879e-13
6772.27 3.5762e-13
6772.91 3.574e-13
6773.54 3.581e-13
6774.18 3.5901e-13
6774.81 3.5892e-13
6775.45 3.559e-13
6776.09 3.5509e-13
6776.72 3.5609e-13
6777.36 3.5658e-13
6777.99 3.5519e-13
6778.63 3.548e-13
6779.26 3.5514e-13
6779.9 3.55e-13
6780.54 3.5435e-13
6781.17 3.5286e-13
6781.81 3.5206e-13
6782.44 3.5256e-13
6783.08 3.5492e-13
6783.71 3.5507e-13
6784.35 3.5338e-13
6784.98 3.5365e-13
6785.62 3.5051e-13
6786.26 3.5125e-13
6786.89 3.5348e-13
6787.53 3.5055e-13
6788.16 3.4987e-13
6788.8 3.5254e-13
6789.43 3.5348e-13
6790.07 3.5319e-13
6790.71 3.4981e-13
6791.34 3.4803e-13
6791.98 3.5133e-13
6792.61 3.4927e-13
6793.25 3.4788e-13
6793.88 3.5024e-13
6794.52 3.4845e-13
6795.15 3.4858e-13
6795.79 3.4544e-13
6796.43 3.4702e-13
6797.06 3.4779e-13
6797.7 3.4372e-13
6798.33 3.4413e-13
6798.97 3.4675e-13
6799.6 3.4849e-13
6800.24 3.4317e-13
6800.88 3.42e-13
6801.51 3.4351e-13
6802.15 3.4353e-13
6802.78 3.4713e-13
6803.42 3.454e-13
6804.05 3.4119e-13
6804.69 3.4145e-13
6805.32 3.4217e-13
6805.96 3.4053e-13
6806.6 3.4402e-13
6807.23 3.4325e-13
6807.87 3.4508e-13
6808.5 3.4352e-13
6809.14 3.3957e-13
6809.77 3.4119e-13
6810.41 3.4049e-13
6811.05 3.4136e-13
6811.68 3.4417e-13
6812.32 3.4146e-13
6812.95 3.3804e-13
6813.59 3.3994e-13
6814.22 3.4112e-13
6814.86 3.3779e-13
6815.5 3.3845e-13
6816.13 3.4048e-13
6816.77 3.4127e-13
6817.4 3.3695e-13
6818.04 3.3681e-13
6818.67 3.3639e-13
6819.31 3.3588e-13
6819.94 3.3822e-13
6820.58 3.3692e-13
6821.22 3.3611e-13
6821.85 3.3523e-13
6822.49 3.3775e-13
6823.12 3.3706e-13
6823.76 3.3583e-13
6824.39 3.3489e-13
6825.03 3.3408e-13
6825.67 3.3484e-13
6826.3 3.3447e-13
6826.94 3.3357e-13
6827.57 3.341e-13
6828.21 3.3322e-13
6828.84 3.3096e-13
6829.48 3.3083e-13
6830.11 3.3254e-13
6830.75 3.3525e-13
6831.39 3.3353e-13
6832.02 3.3008e-13
6832.66 3.3006e-13
6833.29 3.302e-13
6833.93 3.2785e-13
6834.56 3.2737e-13
6835.2 3.2963e-13
6835.84 3.3256e-13
6836.47 3.3106e-13
6837.11 3.2784e-13
6837.74 3.2761e-13
6838.38 3.2994e-13
6839.01 3.2848e-13
6839.65 3.2749e-13
6840.28 3.288e-13
6840.92 3.2972e-13
6841.56 3.2952e-13
6842.19 3.295e-13
6842.83 3.2988e-13
6843.46 3.2848e-13
6844.1 3.2721e-13
6844.73 3.2829e-13
6845.37 3.3026e-13
6846.01 3.2926e-13
6846.64 3.3098e-13
6847.28 3.3064e-13
6847.91 3.3111e-13
6848.55 3.3034e-13
6849.18 3.2847e-13
6849.82 3.2756e-13
6850.45 3.2745e-13
6851.09 3.2552e-13
6851.73 3.2655e-13
6852.36 3.2612e-13
6853.0 3.261e-13
6853.63 3.2435e-13
6854.27 3.2438e-13
6854.9 3.2553e-13
6855.54 3.2263e-13
6856.18 3.2299e-13
6856.81 3.2406e-13
6857.45 3.2162e-13
6858.08 3.2161e-13
6858.72 3.2179e-13
6859.35 3.2148e-13
6859.99 3.1792e-13
6860.62 3.1962e-13
6861.26 3.2011e-13
6861.9 3.1667e-13
6862.53 3.2124e-13
6863.17 3.2356e-13
6863.8 3.163e-13
6864.44 3.1922e-13
6865.07 3.2415e-13
6865.71 3.2512e-13
6866.35 3.2341e-13
6866.98 3.2545e-13
6867.62 3.3373e-13
6868.25 3.3793e-13
6868.89 3.3911e-13
6869.52 3.2793e-13
6870.16 3.1931e-13
6870.79 3.1753e-13
6871.43 3.1883e-13
6872.07 3.2498e-13
6872.7 3.2699e-13
6873.34 3.2606e-13
6873.97 3.2145e-13
6874.61 3.1911e-13
6875.24 3.2629e-13
6875.88 3.2687e-13
6876.52 3.1701e-13
6877.15 3.1615e-13
6877.79 3.1822e-13
6878.42 3.1261e-13
6879.06 3.1201e-13
6879.69 3.1393e-13
6880.33 3.1874e-13
6880.96 3.2e-13
6881.6 3.1363e-13
6882.24 3.0989e-13
6882.87 3.1156e-13
6883.51 3.155e-13
6884.14 3.1832e-13
6884.78 3.2165e-13
6885.41 3.1836e-13
6886.05 3.1603e-13
6886.69 3.2109e-13
6887.32 3.1975e-13
6887.96 3.206e-13
6888.59 3.1786e-13
6889.23 3.206e-13
6889.86 3.2698e-13
6890.5 3.1957e-13
6891.13 3.1593e-13
6891.77 3.1578e-13
6892.41 3.1653e-13
6893.04 3.2326e-13
6893.68 3.2503e-13
6894.31 3.2293e-13
6894.95 3.1704e-13
6895.58 3.1299e-13
6896.22 3.1527e-13
6896.86 3.2428e-13
6897.49 3.357e-13
6898.13 3.2343e-13
6898.76 3.1008e-13
6899.4 3.1692e-13
6900.03 3.2641e-13
6900.67 3.2685e-13
6901.31 3.3015e-13
6901.94 3.2105e-13
6902.58 3.157e-13
6903.21 3.1598e-13
6903.85 3.175e-13
6904.48 3.1963e-13
6905.12 3.1561e-13
6905.75 3.1887e-13
6906.39 3.2249e-13
6907.03 3.1802e-13
6907.66 3.1931e-13
6908.3 3.1783e-13
6908.93 3.1781e-13
6909.57 3.2508e-13
6910.2 3.2623e-13
6910.84 3.2192e-13
6911.48 3.1681e-13
6912.11 3.1933e-13
6912.75 3.1665e-13
6913.38 3.1442e-13
6914.02 3.2197e-13
6914.65 3.2541e-13
6915.29 3.1833e-13
6915.92 3.0949e-13
6916.56 3.1144e-13
6917.2 3.1872e-13
6917.83 3.1968e-13
6918.47 3.1645e-13
6919.1 3.1419e-13
6919.74 3.1696e-13
6920.37 3.1951e-13
6921.01 3.1858e-13
6921.65 3.1187e-13
6922.28 3.1031e-13
6922.92 3.1569e-13
6923.55 3.2009e-13
6924.19 3.1728e-13
6924.82 3.1946e-13
6925.46 3.1949e-13
6926.09 3.1383e-13
6926.73 3.1822e-13
6927.37 3.2167e-13
6928.0 3.2072e-13
6928.64 3.1553e-13
6929.27 3.1404e-13
6929.91 3.1548e-13
6930.54 3.1487e-13
6931.18 3.1532e-13
6931.82 3.2361e-13
6932.45 3.2251e-13
6933.09 3.1622e-13
6933.72 3.162e-13
6934.36 3.1348e-13
6934.99 3.153e-13
6935.63 3.1589e-13
6936.26 3.0642e-13
6936.9 3.1108e-13
6937.54 3.1807e-13
6938.17 3.1742e-13
6938.81 3.1497e-13
6939.44 3.185e-13
6940.08 3.1682e-13
6940.71 3.1549e-13
6941.35 3.2028e-13
6941.99 3.1928e-13
6942.62 3.1825e-13
6943.26 3.1517e-13
6943.89 3.1111e-13
6944.53 3.1708e-13
6945.16 3.1902e-13
6945.8 3.1529e-13
6946.43 3.117e-13
6947.07 3.1819e-13
6947.71 3.1932e-13
6948.34 3.1122e-13
6948.98 3.1176e-13
6949.61 3.2185e-13
6950.25 3.1632e-13
6950.88 3.1654e-13
6951.52 3.154e-13
6952.16 3.1616e-13
6952.79 3.1343e-13
6953.43 3.2028e-13
6954.06 3.1941e-13
6954.7 3.1762e-13
6955.33 3.159e-13
6955.97 3.1874e-13
6956.6 3.231e-13
6957.24 3.2458e-13
6957.88 3.2026e-13
6958.51 3.1205e-13
6959.15 3.1436e-13
6959.78 3.1877e-13
6960.42 3.1642e-13
6961.05 3.1924e-13
6961.69 3.2163e-13
6962.33 3.1505e-13
6962.96 3.1315e-13
6963.6 3.1518e-13
6964.23 3.1547e-13
6964.87 3.142e-13
6965.5 3.1368e-13
6966.14 3.1426e-13
6966.77 3.1536e-13
6967.41 3.181e-13
6968.05 3.1903e-13
6968.68 3.1605e-13
6969.32 3.1607e-13
6969.95 3.1626e-13
6970.59 3.159e-13
6971.22 3.143e-13
6971.86 3.1277e-13
6972.5 3.1325e-13
6973.13 3.1523e-13
6973.77 3.1681e-13
6974.4 3.1721e-13
6975.04 3.1828e-13
6975.67 3.1617e-13
6976.31 3.1676e-13
6976.94 3.1668e-13
6977.58 3.1672e-13
6978.22 3.1676e-13
6978.85 3.168e-13
6979.49 3.1684e-13
6980.12 3.1689e-13
6980.76 3.1693e-13
6981.39 3.1697e-13
6982.03 3.1701e-13
6982.67 3.1705e-13
6983.3 3.171e-13
6983.94 3.1714e-13
6984.57 3.1718e-13
6985.21 3.1722e-13
6985.84 3.1726e-13
6986.48 3.1731e-13
6987.11 3.1735e-13
6987.75 3.1739e-13
6988.39 3.1743e-13
6989.02 3.1747e-13
6989.66 3.1751e-13
6990.29 3.1756e-13
6990.93 3.176e-13
6991.56 3.1764e-13
6992.2 3.1768e-13
6992.84 3.1772e-13
6993.47 3.1777e-13
6994.11 3.1781e-13
6994.74 3.1785e-13
6995.38 3.1789e-13
6996.01 3.1793e-13
6996.65 3.1798e-13
6997.29 3.1802e-13
6997.92 3.1806e-13
6998.56 3.181e-13
6999.19 3.1814e-13
6999.83 3.1818e-13
7000.46 3.1823e-13
7001.1 3.1827e-13
7001.73 3.1831e-13
7002.37 3.1835e-13
7003.01 3.1839e-13
7003.64 3.1844e-13
7004.28 3.1848e-13
7004.91 3.1852e-13
7005.55 3.1856e-13
7006.18 3.186e-13
7006.82 3.1864e-13
7007.46 3.1869e-13
7008.09 3.1873e-13
7008.73 3.1877e-13
7009.36 3.1831e-13
7010.0 3.2106e-13
7010.63 3.184e-13
7011.27 3.1767e-13
7011.9 3.1638e-13
7012.54 3.1658e-13
7013.18 3.1895e-13
7013.81 3.1787e-13
7014.45 3.1827e-13
7015.08 3.1603e-13
7015.72 3.11e-13
7016.35 3.074e-13
7016.99 3.1171e-13
7017.63 3.117e-13
7018.26 3.1161e-13
7018.9 3.1543e-13
7019.53 3.1783e-13
7020.17 3.1618e-13
7020.8 3.1495e-13
7021.44 3.1643e-13
7022.07 3.1348e-13
7022.71 3.1067e-13
7023.35 3.1266e-13
7023.98 3.1352e-13
7024.62 3.1303e-13
7025.25 3.1159e-13
7025.89 3.1235e-13
7026.52 3.1224e-13
7027.16 3.1092e-13
7027.8 3.0845e-13
7028.43 3.0922e-13
7029.07 3.1044e-13
7029.7 3.1098e-13
7030.34 3.1252e-13
7030.97 3.1555e-13
7031.61 3.1703e-13
7032.24 3.1497e-13
7032.88 3.1409e-13
7033.52 3.1348e-13
7034.15 3.1371e-13
7034.79 3.1415e-13
7035.42 3.1127e-13
7036.06 3.1027e-13
7036.69 3.1003e-13
7037.33 3.0871e-13
7037.97 3.0704e-13
7038.6 3.0584e-13
7039.24 3.0782e-13
7039.87 3.061e-13
7040.51 3.0549e-13
7041.14 3.1016e-13
7041.78 3.1152e-13
7042.41 3.1062e-13
7043.05 3.1277e-13
7043.69 3.1298e-13
7044.32 3.1014e-13
7044.96 3.1116e-13
7045.59 3.1124e-13
7046.23 3.0887e-13
7046.86 3.092e-13
7047.5 3.0915e-13
7048.14 3.0733e-13
7048.77 3.0754e-13
7049.41 3.0957e-13
7050.04 3.0595e-13
7050.68 3.0198e-13
7051.31 3.0447e-13
7051.95 3.0569e-13
7052.58 3.0432e-13
7053.22 3.0375e-13
7053.86 3.0403e-13
7054.49 3.0472e-13
7055.13 3.049e-13
7055.76 3.0537e-13
7056.4 3.0662e-13
7057.03 3.0507e-13
7057.67 3.0508e-13
7058.31 3.0701e-13
7058.94 3.0759e-13
7059.58 3.0614e-13
7060.21 3.0478e-13
7060.85 3.0348e-13
7061.48 3.0157e-13
7062.12 3.0226e-13
7062.75 3.0345e-13
7063.39 3.0584e-13
7064.03 3.066e-13
7064.66 3.0585e-13
7065.3 3.0692e-13
7065.93 3.05e-13
7066.57 3.0279e-13
7067.2 3.0448e-13
7067.84 3.0642e-13
7068.48 3.0632e-13
7069.11 3.0543e-13
7069.75 3.0449e-13
7070.38 3.0484e-13
7071.02 3.0516e-13
7071.65 3.0401e-13
7072.29 3.0472e-13
7072.92 3.0763e-13
7073.56 3.0589e-13
7074.2 3.0353e-13
7074.83 3.0619e-13
7075.47 3.0903e-13
7076.1 3.0824e-13
7076.74 3.0525e-13
7077.37 3.0477e-13
7078.01 3.0549e-13
7078.65 3.0346e-13
7079.28 3.0251e-13
7079.92 3.0422e-13
7080.55 3.0582e-13
7081.19 3.0654e-13
7081.82 3.0625e-13
7082.46 3.0545e-13
7083.1 3.0659e-13
7083.73 3.0707e-13
7084.37 3.0555e-13
7085.0 3.0603e-13
7085.64 3.0435e-13
7086.27 3.0479e-13
7086.91 3.044e-13
7087.54 3.0352e-13
7088.18 3.0237e-13
7088.82 3.0185e-13
7089.45 3.0358e-13
7090.09 3.0345e-13
7090.72 3.0273e-13
7091.36 3.0634e-13
7091.99 3.0756e-13
7092.63 3.0471e-13
7093.27 3.0344e-13
7093.9 3.036e-13
7094.54 3.04e-13
7095.17 3.0306e-13
7095.81 3.0425e-13
7096.44 3.0608e-13
7097.08 3.0636e-13
7097.71 3.0555e-13
7098.35 3.0326e-13
7098.99 3.018e-13
7099.62 3.0283e-13
7100.26 3.046e-13
7100.89 3.0338e-13
7101.53 3.0297e-13
7102.16 3.0384e-13
7102.8 3.0547e-13
7103.44 3.0746e-13
7104.07 3.0572e-13
7104.71 3.0193e-13
7105.34 3.0179e-13
7105.98 3.0197e-13
7106.61 3.0278e-13
7107.25 3.0395e-13
7107.88 3.0301e-13
7108.52 3.0223e-13
7109.16 3.054e-13
7109.79 3.0665e-13
7110.43 3.046e-13
7111.06 3.0472e-13
7111.7 3.0624e-13
7112.33 3.0619e-13
7112.97 3.0505e-13
7113.61 3.0381e-13
7114.24 3.0389e-13
7114.88 3.0475e-13
7115.51 3.0533e-13
7116.15 3.0811e-13
7116.78 3.0743e-13
7117.42 3.0423e-13
7118.05 3.0496e-13
7118.69 3.0661e-13
7119.33 3.0731e-13
7119.96 3.0716e-13
7120.6 3.0436e-13
7121.23 3.0274e-13
7121.87 3.0299e-13
7122.5 3.037e-13
7123.14 3.0484e-13
7123.78 3.0468e-13
7124.41 3.0382e-13
7125.05 3.034e-13
7125.68 3.0496e-13
7126.32 3.0567e-13
7126.95 3.0604e-13
7127.59 3.0592e-13
7128.22 3.0538e-13
7128.86 3.0483e-13
7129.5 3.0472e-13
7130.13 3.078e-13
7130.77 3.0659e-13
7131.4 3.0311e-13
7132.04 3.0334e-13
7132.67 3.0365e-13
7133.31 3.0478e-13
7133.95 3.0637e-13
7134.58 3.0623e-13
7135.22 3.0501e-13
7135.85 3.0453e-13
7136.49 3.0448e-13
7137.12 3.0413e-13
7137.76 3.0316e-13
7138.39 3.038e-13
7139.03 3.0373e-13
7139.67 3.0451e-13
7140.3 3.06e-13
7140.94 3.0512e-13
7141.57 3.0529e-13
7142.21 3.0514e-13
7142.84 3.0629e-13
7143.48 3.0637e-13
7144.12 3.038e-13
7144.75 3.0484e-13
7145.39 3.0511e-13
7146.02 3.0448e-13
7146.66 3.0448e-13
7147.29 3.0333e-13
7147.93 3.0354e-13
7148.56 3.0211e-13
7149.2 3.0046e-13
7149.84 3.0154e-13
7150.47 3.0207e-13
7151.11 3.0038e-13
7151.74 3.0024e-13
7152.38 2.9986e-13
7153.01 2.9982e-13
7153.65 3.0177e-13
7154.29 3.0232e-13
7154.92 3.0143e-13
7155.56 3.0025e-13
7156.19 3.0095e-13
7156.83 3.0026e-13
7157.46 3.0048e-13
7158.1 3.0121e-13
7158.73 3.0092e-13
7159.37 3.0463e-13
7160.01 3.0433e-13
7160.64 3.0237e-13
7161.28 3.0181e-13
7161.91 3.0163e-13
7162.55 3.0274e-13
7163.18 3.0495e-13
7163.82 2.9962e-13
7164.46 2.9716e-13
7165.09 3.0274e-13
7165.73 3.0228e-13
7166.36 3.0105e-13
7167.0 2.9912e-13
7167.63 3.0212e-13
7168.27 3.0667e-13
7168.91 2.9959e-13
7169.54 2.9367e-13
7170.18 2.9843e-13
7170.81 3.0291e-13
7171.45 3.0033e-13
7172.08 3.0069e-13
7172.72 2.9888e-13
7173.35 2.9573e-13
7173.99 3.0289e-13
7174.63 3.0159e-13
7175.26 2.9792e-13
7175.9 2.9354e-13
7176.53 2.9746e-13
7177.17 3.0586e-13
7177.8 3.0217e-13
7178.44 3.0421e-13
7179.08 2.9816e-13
7179.71 2.969e-13
7180.35 2.9897e-13
7180.98 3.0152e-13
7181.62 2.9911e-13
7182.25 3.0028e-13
7182.89 2.968e-13
7183.52 3.0167e-13
7184.16 2.9548e-13
7184.8 3.0189e-13
7185.43 3.0908e-13
7186.07 2.9727e-13
7186.7 2.9188e-13
7187.34 3.034e-13
7187.97 3.0186e-13
7188.61 3.0024e-13
7189.25 2.9334e-13
7189.88 2.8635e-13
7190.52 2.9733e-13
7191.15 3.0346e-13
7191.79 3.0051e-13
7192.42 2.9962e-13
7193.06 2.9524e-13
7193.69 2.9127e-13
7194.33 2.9587e-13
7194.97 3.0087e-13
7195.6 2.9946e-13
7196.24 2.9416e-13
7196.87 2.9754e-13
7197.51 2.9879e-13
7198.14 3.021e-13
7198.78 3.0517e-13
7199.42 3.0385e-13
7200.05 2.9796e-13
7200.69 3.0034e-13
7201.32 3.0504e-13
7201.96 3.0266e-13
7202.59 2.9468e-13
7203.23 2.9458e-13
7203.86 2.9802e-13
7204.5 2.996e-13
7205.14 3.0218e-13
7205.77 2.9905e-13
7206.41 2.9485e-13
7207.04 2.9671e-13
7207.68 2.9281e-13
7208.31 2.8691e-13
7208.95 2.8961e-13
7209.59 2.9462e-13
7210.22 2.9523e-13
7210.86 2.9106e-13
7211.49 2.9151e-13
7212.13 2.941e-13
7212.76 2.959e-13
7213.4 2.9472e-13
7214.03 2.9384e-13
7214.67 2.9716e-13
7215.31 2.961e-13
7215.94 2.9544e-13
7216.58 2.9384e-13
7217.21 2.9076e-13
7217.85 2.9199e-13
7218.48 2.9016e-13
7219.12 2.9252e-13
7219.76 2.8918e-13
7220.39 2.901e-13
7221.03 2.9019e-13
7221.66 2.8986e-13
7222.3 2.9048e-13
7222.93 2.9463e-13
7223.57 2.958e-13
7224.2 2.9543e-13
7224.84 2.9158e-13
7225.48 2.8837e-13
7226.11 2.8975e-13
7226.75 2.865e-13
7227.38 2.87e-13
7228.02 2.973e-13
7228.65 2.9792e-13
7229.29 2.8908e-13
7229.93 2.8749e-13
7230.56 2.9398e-13
7231.2 2.8658e-13
7231.83 2.8553e-13
7232.47 2.9353e-13
7233.1 3.0315e-13
7233.74 2.9891e-13
7234.37 2.8505e-13
7235.01 2.8262e-13
7235.65 2.8994e-13
7236.28 2.961e-13
7236.92 2.8371e-13
7237.55 2.8496e-13
7238.19 2.9584e-13
7238.82 2.9702e-13
7239.46 2.965e-13
7240.1 2.9053e-13
7240.73 2.8925e-13
7241.37 2.9775e-13
7242.0 2.8998e-13
7242.64 2.8684e-13
7243.27 2.8921e-13
7243.91 2.933e-13
7244.54 2.985e-13
7245.18 2.8971e-13
7245.82 2.809e-13
7246.45 2.8288e-13
7247.09 2.8832e-13
7247.72 2.9554e-13
7248.36 2.9171e-13
7248.99 2.8564e-13
7249.63 2.9288e-13
7250.27 2.9566e-13
7250.9 2.9253e-13
7251.54 2.9225e-13
7252.17 2.9003e-13
7252.81 2.9423e-13
7253.44 2.943e-13
7254.08 2.8612e-13
7254.72 2.8226e-13
7255.35 2.7779e-13
7255.99 2.8446e-13
7256.62 2.9045e-13
7257.26 2.8856e-13
7257.89 2.8556e-13
7258.53 2.8644e-13
7259.16 2.8811e-13
7259.8 2.859e-13
7260.44 2.8146e-13
7261.07 2.8096e-13
7261.71 2.8289e-13
7262.34 2.8597e-13
7262.98 2.8599e-13
7263.61 2.8976e-13
7264.25 2.8977e-13
7264.89 2.8506e-13
7265.52 2.8838e-13
7266.16 2.9015e-13
7266.79 2.8798e-13
7267.43 2.8405e-13
7268.06 2.8002e-13
7268.7 2.8194e-13
7269.33 2.8675e-13
7269.97 2.8463e-13
7270.61 2.8302e-13
7271.24 2.8408e-13
7271.88 2.8631e-13
7272.51 2.848e-13
7273.15 2.7973e-13
7273.78 2.8379e-13
7274.42 2.8424e-13
7275.06 2.7709e-13
7275.69 2.832e-13
7276.33 2.8916e-13
7276.96 2.8539e-13
7277.6 2.8436e-13
7278.23 2.8428e-13
7278.87 2.8714e-13
7279.5 2.8297e-13
7280.14 2.8371e-13
7280.78 2.8506e-13
7281.41 2.8285e-13
7282.05 2.8473e-13
7282.68 2.8228e-13
7283.32 2.8284e-13
7283.95 2.8498e-13
7284.59 2.8513e-13
7285.23 2.8582e-13
7285.86 2.8741e-13
7286.5 2.881e-13
7287.13 2.89e-13
7287.77 2.8921e-13
7288.4 2.914e-13
7289.04 2.8602e-13
7289.67 2.7897e-13
7290.31 2.8135e-13
7290.95 2.8606e-13
7291.58 2.8794e-13
7292.22 2.8097e-13
7292.85 2.7649e-13
7293.49 2.7787e-13
7294.12 2.7961e-13
7294.76 2.8135e-13
7295.4 2.7921e-13
7296.03 2.7756e-13
7296.67 2.7693e-13
7297.3 2.7862e-13
7297.94 2.8298e-13
7298.57 2.8621e-13
7299.21 2.8494e-13
7299.84 2.8441e-13
7300.48 2.846e-13
7301.12 2.8687e-13
7301.75 2.8685e-13
7302.39 2.8161e-13
7303.02 2.7793e-13
7303.66 2.8253e-13
7304.29 2.8423e-13
7304.93 2.8263e-13
7305.57 2.8397e-13
7306.2 2.8419e-13
7306.84 2.8288e-13
7307.47 2.7958e-13
7308.11 2.7972e-13
7308.74 2.8371e-13
7309.38 2.8874e-13
7310.01 2.8313e-13
7310.65 2.7925e-13
7311.29 2.7985e-13
7311.92 2.8241e-13
7312.56 2.8235e-13
7313.19 2.8438e-13
7313.83 2.8555e-13
7314.46 2.8e-13
7315.1 2.8062e-13
7315.74 2.8731e-13
7316.37 2.8269e-13
7317.01 2.8061e-13
7317.64 2.8128e-13
7318.28 2.8411e-13
7318.91 2.8629e-13
7319.55 2.8337e-13
7320.18 2.8055e-13
7320.82 2.8e-13
7321.46 2.7856e-13
7322.09 2.7648e-13
7322.73 2.7944e-13
7323.36 2.8438e-13
7324.0 2.9058e-13
7324.63 2.8621e-13
7325.27 2.8034e-13
7325.91 2.7992e-13
7326.54 2.7719e-13
7327.18 2.8076e-13
7327.81 2.8274e-13
7328.45 2.7651e-13
7329.08 2.7724e-13
7329.72 2.7921e-13
7330.35 2.7589e-13
7330.99 2.8023e-13
7331.63 2.8504e-13
7332.26 2.8238e-13
7332.9 2.8022e-13
7333.53 2.7782e-13
7334.17 2.757e-13
7334.8 2.7749e-13
7335.44 2.8117e-13
7336.08 2.7961e-13
7336.71 2.786e-13
7337.35 2.8033e-13
7337.98 2.781e-13
7338.62 2.7733e-13
7339.25 2.7638e-13
7339.89 2.7504e-13
7340.52 2.7449e-13
7341.16 2.732e-13
7341.8 2.7508e-13
7342.43 2.7791e-13
7343.07 2.7722e-13
7343.7 2.7566e-13
7344.34 2.7663e-13
7344.97 2.7303e-13
7345.61 2.7278e-13
7346.25 2.7552e-13
7346.88 2.7702e-13
7347.52 2.7734e-13
7348.15 2.7505e-13
7348.79 2.7765e-13
7349.42 2.7607e-13
7350.06 2.7479e-13
7350.7 2.767e-13
7351.33 2.7962e-13
7351.97 2.8054e-13
7352.6 2.8217e-13
7353.24 2.789e-13
7353.87 2.7724e-13
7354.51 2.7771e-13
7355.14 2.7854e-13
7355.78 2.7695e-13
7356.42 2.7462e-13
7357.05 2.7316e-13
7357.69 2.754e-13
7358.32 2.7591e-13
7358.96 2.7528e-13
7359.59 2.7492e-13
7360.23 2.7392e-13
7360.87 2.7387e-13
7361.5 2.742e-13
7362.14 2.7485e-13
7362.77 2.7598e-13
7363.41 2.7512e-13
7364.04 2.7576e-13
7364.68 2.7449e-13
7365.31 2.7496e-13
7365.95 2.7694e-13
7366.59 2.7564e-13
7367.22 2.7613e-13
7367.86 2.7534e-13
7368.49 2.7528e-13
7369.13 2.72e-13
7369.76 2.7015e-13
7370.4 2.7279e-13
7371.04 2.7314e-13
7371.67 2.7421e-13
7372.31 2.7691e-13
7372.94 2.7426e-13
7373.58 2.7351e-13
7374.21 2.7391e-13
7374.85 2.7465e-13
7375.48 2.7545e-13
7376.12 2.7677e-13
7376.76 2.7501e-13
7377.39 2.7182e-13
7378.03 2.7266e-13
7378.66 2.7445e-13
7379.3 2.7419e-13
7379.93 2.7428e-13
7380.57 2.7449e-13
7381.21 2.7414e-13
7381.84 2.7468e-13
7382.48 2.7356e-13
7383.11 2.7318e-13
7383.75 2.731e-13
7384.38 2.731e-13
7385.02 2.7298e-13
7385.65 2.7226e-13
7386.29 2.7495e-13
7386.93 2.7334e-13
7387.56 2.7113e-13
7388.2 2.731e-13
7388.83 2.7452e-13
7389.47 2.7264e-13
7390.1 2.7185e-13
7390.74 2.7242e-13
7391.38 2.7272e-13
7392.01 2.7033e-13
7392.65 2.7404e-13
7393.28 2.7481e-13
7393.92 2.7261e-13
7394.55 2.7154e-13
7395.19 2.7253e-13
7395.82 2.7201e-13
7396.46 2.7101e-13
7397.1 2.6867e-13
7397.73 2.6893e-13
7398.37 2.6998e-13
7399.0 2.7069e-13
7399.64 2.7089e-13
7400.27 2.7039e-13
7400.91 2.7204e-13
7401.55 2.7232e-13
7402.18 2.7067e-13
7402.82 2.7e-13
7403.45 2.6909e-13
7404.09 2.6894e-13
7404.72 2.7115e-13
7405.36 2.717e-13
7405.99 2.7241e-13
7406.63 2.727e-13
7407.27 2.707e-13
7407.9 2.6897e-13
7408.54 2.6816e-13
7409.17 2.6865e-13
7409.81 2.6954e-13
7410.44 2.6876e-13
7411.08 2.676e-13
7411.72 2.6693e-13
7412.35 2.6992e-13
7412.99 2.703e-13
7413.62 2.6849e-13
7414.26 2.6946e-13
7414.89 2.6847e-13
7415.53 2.6686e-13
7416.16 2.6798e-13
7416.8 2.6958e-13
7417.44 2.6987e-13
7418.07 2.6963e-13
7418.71 2.7007e-13
7419.34 2.6927e-13
7419.98 2.6869e-13
7420.61 2.6998e-13
7421.25 2.7112e-13
7421.89 2.7082e-13
7422.52 2.6827e-13
7423.16 2.66e-13
7423.79 2.6578e-13
7424.43 2.6736e-13
7425.06 2.6723e-13
7425.7 2.6521e-13
7426.33 2.6722e-13
7426.97 2.6843e-13
7427.61 2.6625e-13
7428.24 2.6548e-13
7428.88 2.6661e-13
7429.51 2.6618e-13
7430.15 2.6523e-13
7430.78 2.6598e-13
7431.42 2.6621e-13
7432.06 2.6536e-13
7432.69 2.6234e-13
7433.33 2.6151e-13
7433.96 2.629e-13
7434.6 2.6414e-13
7435.23 2.6498e-13
7435.87 2.65e-13
7436.51 2.6561e-13
7437.14 2.652e-13
7437.78 2.6507e-13
7438.41 2.6558e-13
7439.05 2.6566e-13
7439.68 2.651e-13
7440.32 2.6506e-13
7440.95 2.6586e-13
7441.59 2.6497e-13
7442.23 2.6363e-13
7442.86 2.6315e-13
7443.5 2.6268e-13
7444.13 2.6188e-13
7444.77 2.6384e-13
7445.4 2.6559e-13
7446.04 2.639e-13
7446.68 2.6378e-13
7447.31 2.6459e-13
7447.95 2.6386e-13
7448.58 2.6257e-13
7449.22 2.6139e-13
7449.85 2.6152e-13
7450.49 2.6209e-13
7451.12 2.6258e-13
7451.76 2.6223e-13
7452.4 2.625e-13
7453.03 2.6168e-13
7453.67 2.6257e-13
7454.3 2.6379e-13
7454.94 2.6144e-13
7455.57 2.612e-13
7456.21 2.6332e-13
7456.85 2.6234e-13
7457.48 2.5875e-13
7458.12 2.5867e-13
7458.75 2.5899e-13
7459.39 2.5898e-13
7460.02 2.6028e-13
7460.66 2.6107e-13
7461.29 2.6094e-13
7461.93 2.6025e-13
7462.57 2.5979e-13
7463.2 2.6155e-13
7463.84 2.6084e-13
7464.47 2.5838e-13
7465.11 2.5912e-13
7465.74 2.5756e-13
7466.38 2.5672e-13
7467.02 2.5915e-13
7467.65 2.5823e-13
7468.29 2.5791e-13
7468.92 2.5936e-13
7469.56 2.586e-13
7470.19 2.5675e-13
7470.83 2.5665e-13
7471.46 2.5824e-13
7472.1 2.5813e-13
7472.74 2.5854e-13
7473.37 2.5753e-13
7474.01 2.5533e-13
7474.64 2.5578e-13
7475.28 2.573e-13
7475.91 2.5672e-13
7476.55 2.5426e-13
7477.19 2.5427e-13
7477.82 2.549e-13
7478.46 2.5554e-13
7479.09 2.5747e-13
7479.73 2.5789e-13
7480.36 2.5727e-13
7481.0 2.5545e-13
7481.63 2.5561e-13
7482.27 2.5581e-13
7482.91 2.5551e-13
7483.54 2.5696e-13
7484.18 2.5551e-13
7484.81 2.5572e-13
7485.45 2.5542e-13
7486.08 2.5425e-13
7486.72 2.5541e-13
7487.36 2.5345e-13
7487.99 2.5386e-13
7488.63 2.5368e-13
7489.26 2.5316e-13
7489.9 2.5464e-13
7490.53 2.5448e-13
7491.17 2.5297e-13
7491.8 2.5155e-13
7492.44 2.5023e-13
7493.08 2.5006e-13
7493.71 2.5004e-13
7494.35 2.4877e-13
7494.98 2.4924e-13
7495.62 2.4874e-13
7496.25 2.4913e-13
7496.89 2.493e-13
7497.53 2.4838e-13
7498.16 2.5e-13
7498.8 2.4942e-13
7499.43 2.4915e-13
7500.07 2.4947e-13
7500.7 2.4867e-13
7501.34 2.4652e-13
7501.97 2.4713e-13
7502.61 2.489e-13
7503.25 2.4676e-13
7503.88 2.4837e-13
7504.52 2.5037e-13
7505.15 2.4859e-13
7505.79 2.488e-13
7506.42 2.4845e-13
7507.06 2.49e-13
7507.7 2.5083e-13
7508.33 2.4897e-13
7508.97 2.4718e-13
7509.6 2.4874e-13
7510.24 2.5056e-13
7510.87 2.5132e-13
7511.51 2.5152e-13
7512.14 2.5005e-13
7512.78 2.4741e-13
7513.42 2.4693e-13
7514.05 2.4906e-13
7514.69 2.4985e-13
7515.32 2.4932e-13
7515.96 2.4891e-13
7516.59 2.4746e-13
7517.23 2.4729e-13
7517.87 2.4901e-13
7518.5 2.5122e-13
7519.14 2.5039e-13
7519.77 2.4774e-13
7520.41 2.4887e-13
7521.04 2.4754e-13
7521.68 2.4806e-13
7522.32 2.4941e-13
7522.95 2.4679e-13
7523.59 2.4527e-13
7524.22 2.4503e-13
7524.86 2.4579e-13
7525.49 2.4606e-13
7526.13 2.476e-13
7526.76 2.4605e-13
7527.4 2.4491e-13
7528.04 2.4502e-13
7528.67 2.4515e-13
7529.31 2.4382e-13
7529.94 2.4795e-13
7530.58 2.4586e-13
7531.21 2.4454e-13
7531.85 2.4515e-13
7532.49 2.4582e-13
7533.12 2.4568e-13
7533.76 2.4605e-13
7534.39 2.4473e-13
7535.03 2.4535e-13
7535.66 2.4556e-13
7536.3 2.4529e-13
7536.93 2.4536e-13
7537.57 2.4594e-13
7538.21 2.4543e-13
7538.84 2.4484e-13
7539.48 2.4504e-13
7540.11 2.4608e-13
7540.75 2.4553e-13
7541.38 2.4553e-13
7542.02 2.4576e-13
7542.66 2.4484e-13
7543.29 2.474e-13
7543.93 2.4727e-13
7544.56 2.483e-13
7545.2 2.4673e-13
7545.83 2.4174e-13
7546.47 2.446e-13
7547.1 2.4552e-13
7547.74 2.4404e-13
7548.38 2.4372e-13
7549.01 2.4331e-13
7549.65 2.4544e-13
7550.28 2.4713e-13
7550.92 2.471e-13
7551.55 2.4651e-13
7552.19 2.4442e-13
7552.83 2.4454e-13
7553.46 2.4654e-13
7554.1 2.4596e-13
7554.73 2.4473e-13
7555.37 2.4528e-13
7556.0 2.453e-13
7556.64 2.4183e-13
7557.27 2.4197e-13
7557.91 2.4576e-13
7558.55 2.4522e-13
7559.18 2.4361e-13
7559.82 2.4538e-13
7560.45 2.4409e-13
7561.09 2.4066e-13
7561.72 2.4238e-13
7562.36 2.4217e-13
7563.0 2.4172e-13
7563.63 2.4202e-13
7564.27 2.4072e-13
7564.9 2.4094e-13
7565.54 2.4146e-13
7566.17 2.425e-13
7566.81 2.4352e-13
7567.44 2.4259e-13
7568.08 2.4401e-13
7568.72 2.4338e-13
7569.35 2.4381e-13
7569.99 2.4373e-13
7570.62 2.4145e-13
7571.26 2.4352e-13
7571.89 2.4193e-13
7572.53 2.3908e-13
7573.17 2.4236e-13
7573.8 2.4186e-13
7574.44 2.4006e-13
7575.07 2.4025e-13
7575.71 2.4088e-13
7576.34 2.3973e-13
7576.98 2.3658e-13
7577.61 2.4261e-13
7578.25 2.4256e-13
7578.89 2.3937e-13
7579.52 2.4116e-13
7580.16 2.3899e-13
7580.79 2.3688e-13
7581.43 2.3641e-13
7582.06 2.3673e-13
7582.7 2.3589e-13
7583.34 2.3397e-13
7583.97 2.3301e-13
7584.61 2.3366e-13
7585.24 2.3404e-13
7585.88 2.3587e-13
7586.51 2.3514e-13
7587.15 2.333e-13
7587.78 2.3514e-13
7588.42 2.3315e-13
7589.06 2.3244e-13
7589.69 2.3042e-13
7590.33 2.2748e-13
7590.96 2.2652e-13
7591.6 2.2963e-13
7592.23 2.3368e-13
7592.87 2.4051e-13
7593.51 2.4193e-13
7594.14 2.3891e-13
7594.78 2.4102e-13
7595.41 2.388e-13
7596.05 2.3335e-13
7596.68 2.3057e-13
7597.32 2.283e-13
7597.95 2.3024e-13
7598.59 2.3106e-13
7599.23 2.2559e-13
7599.86 2.3354e-13
7600.5 2.3972e-13
7601.13 2.3547e-13
7601.77 2.3631e-13
7602.4 2.2877e-13
7603.04 2.3346e-13
7603.68 2.3217e-13
7604.31 2.2507e-13
7604.95 2.343e-13
7605.58 2.303e-13
7606.22 2.2943e-13
7606.85 2.2998e-13
7607.49 2.2938e-13
7608.12 2.3423e-13
7608.76 2.3453e-13
7609.4 2.4106e-13
7610.03 2.3925e-13
7610.67 2.3634e-13
7611.3 2.3185e-13
7611.94 2.232e-13
7612.57 2.33e-13
7613.21 2.3766e-13
7613.85 2.3408e-13
7614.48 2.2663e-13
7615.12 2.1943e-13
7615.75 2.2655e-13
7616.39 2.3076e-13
7617.02 2.2831e-13
7617.66 2.2663e-13
7618.3 2.257e-13
7618.93 2.3092e-13
7619.57 2.3423e-13
7620.2 2.3345e-13
7620.84 2.4041e-13
7621.47 2.5205e-13
7622.11 2.5444e-13
7622.74 2.4235e-13
7623.38 2.33e-13
7624.02 2.4184e-13
7624.65 2.4418e-13
7625.29 2.4553e-13
7625.92 2.4365e-13
7626.56 2.3041e-13
7627.19 2.3098e-13
7627.83 2.4073e-13
7628.47 2.5247e-13
7629.1 2.4858e-13
7629.74 2.3617e-13
7630.37 2.267e-13
7631.01 2.2718e-13
7631.64 2.3736e-13
7632.28 2.4363e-13
7632.91 2.5161e-13
7633.55 2.4142e-13
7634.19 2.2646e-13
7634.82 2.2657e-13
7635.46 2.313e-13
7636.09 2.3854e-13
7636.73 2.4842e-13
7637.36 2.4628e-13
7638.0 2.3716e-13
7638.64 2.3782e-13
7639.27 2.3865e-13
7639.91 2.4391e-13
7640.54 2.592e-13
7641.18 2.5708e-13
7641.81 2.4402e-13
7642.45 2.3923e-13
7643.08 2.3507e-13
7643.72 2.3998e-13
7644.36 2.4411e-13
7644.99 2.5113e-13
7645.63 2.4992e-13
7646.26 2.436e-13
7646.9 2.406e-13
7647.53 2.3825e-13
7648.17 2.4193e-13
7648.81 2.4534e-13
7649.44 2.4791e-13
7650.08 2.5541e-13
7650.71 2.4944e-13
7651.35 2.4476e-13
7651.98 2.4564e-13
7652.62 2.41e-13
7653.25 2.4502e-13
7653.89 2.4726e-13
7654.53 2.5224e-13
7655.16 2.566e-13
7655.8 2.5063e-13
7656.43 2.4889e-13
7657.07 2.4795e-13
7657.7 2.4919e-13
7658.34 2.5328e-13
7658.98 2.5009e-13
7659.61 2.4811e-13
7660.25 2.4971e-13
7660.88 2.4576e-13
7661.52 2.4464e-13
7662.15 2.4242e-13
7662.79 2.4197e-13
7663.42 2.4629e-13
7664.06 2.4828e-13
7664.7 2.4502e-13
7665.33 2.4635e-13
7665.97 2.4946e-13
7666.6 2.5267e-13
7667.24 2.5228e-13
7667.87 2.4408e-13
7668.51 2.4045e-13
7669.15 2.4864e-13
7669.78 2.5091e-13
7670.42 2.5502e-13
7671.05 2.5712e-13
7671.69 2.5998e-13
7672.32 2.5565e-13
7672.96 2.5208e-13
7673.59 2.4432e-13
7674.23 2.425e-13
7674.87 2.5123e-13
7675.5 2.4647e-13
7676.14 2.478e-13
7676.77 2.5181e-13
7677.41 2.4943e-13
7678.04 2.4579e-13
7678.68 2.4205e-13
7679.32 2.4515e-13
7679.95 2.488e-13
7680.59 2.4892e-13
7681.22 2.4895e-13
7681.86 2.495e-13
7682.49 2.5165e-13
7683.13 2.5166e-13
7683.76 2.4668e-13
7684.4 2.4615e-13
7685.04 2.4858e-13
7685.67 2.4941e-13
7686.31 2.5265e-13
7686.94 2.5192e-13
7687.58 2.5105e-13
7688.21 2.5047e-13
7688.85 2.488e-13
7689.49 2.4934e-13
7690.12 2.5211e-13
7690.76 2.5071e-13
7691.39 2.5425e-13
7692.03 2.5236e-13
7692.66 2.48e-13
7693.3 2.4897e-13
7693.93 2.4811e-13
7694.57 2.4473e-13
7695.21 2.4547e-13
7695.84 2.4606e-13
7696.48 2.4392e-13
7697.11 2.4389e-13
7697.75 2.4275e-13
7698.38 2.4405e-13
7699.02 2.4555e-13
7699.66 2.4825e-13
7700.29 2.5003e-13
7700.93 2.5021e-13
7701.56 2.4898e-13
7702.2 2.4842e-13
7702.83 2.488e-13
7703.47 2.4831e-13
7704.11 2.4878e-13
7704.74 2.5031e-13
7705.38 2.5015e-13
7706.01 2.5343e-13
7706.65 2.5208e-13
7707.28 2.4957e-13
7707.92 2.5033e-13
7708.55 2.5224e-13
7709.19 2.5312e-13
7709.83 2.5076e-13
7710.46 2.497e-13
7711.1 2.4769e-13
7711.73 2.4918e-13
7712.37 2.4844e-13
7713.0 2.4736e-13
7713.64 2.4843e-13
7714.28 2.4911e-13
7714.91 2.4916e-13
7715.55 2.4706e-13
7716.18 2.4969e-13
7716.82 2.5172e-13
7717.45 2.4888e-13
7718.09 2.4903e-13
7718.72 2.5138e-13
7719.36 2.4974e-13
7720.0 2.5096e-13
7720.63 2.5269e-13
7721.27 2.5273e-13
7721.9 2.5321e-13
7722.54 2.5187e-13
7723.17 2.4981e-13
7723.81 2.5002e-13
7724.45 2.5133e-13
7725.08 2.5074e-13
7725.72 2.5008e-13
7726.35 2.517e-13
7726.99 2.5087e-13
7727.62 2.4679e-13
7728.26 2.489e-13
7728.89 2.5177e-13
7729.53 2.5033e-13
7730.17 2.5232e-13
7730.8 2.5322e-13
7731.44 2.5095e-13
7732.07 2.5129e-13
7732.71 2.5281e-13
7733.34 2.4939e-13
7733.98 2.5047e-13
7734.62 2.5254e-13
7735.25 2.5236e-13
7735.89 2.5415e-13
7736.52 2.5405e-13
7737.16 2.4987e-13
7737.79 2.4891e-13
7738.43 2.4875e-13
7739.06 2.4987e-13
7739.7 2.5161e-13
7740.34 2.528e-13
7740.97 2.5299e-13
7741.61 2.5215e-13
7742.24 2.5273e-13
7742.88 2.5206e-13
7743.51 2.5117e-13
7744.15 2.5053e-13
7744.79 2.5159e-13
7745.42 2.4975e-13
7746.06 2.5024e-13
7746.69 2.5096e-13
7747.33 2.5234e-13
7747.96 2.4902e-13
7748.6 2.5045e-13
7749.23 2.5218e-13
7749.87 2.5163e-13
7750.51 2.5061e-13
7751.14 2.5112e-13
7751.78 2.5065e-13
7752.41 2.5201e-13
7753.05 2.514e-13
7753.68 2.5145e-13
7754.32 2.4943e-13
7754.96 2.4894e-13
7755.59 2.5058e-13
7756.23 2.4989e-13
7756.86 2.5101e-13
7757.5 2.5198e-13
7758.13 2.509e-13
7758.77 2.5272e-13
7759.4 2.5404e-13
7760.04 2.5259e-13
7760.68 2.5216e-13
7761.31 2.5375e-13
7761.95 2.5277e-13
7762.58 2.5299e-13
7763.22 2.5291e-13
7763.85 2.5105e-13
7764.49 2.5206e-13
7765.13 2.534e-13
7765.76 2.532e-13
7766.4 2.5157e-13
7767.03 2.5175e-13
7767.67 2.522e-13
7768.3 2.5273e-13
7768.94 2.5378e-13
7769.57 2.5305e-13
7770.21 2.5415e-13
7770.85 2.552e-13
7771.48 2.5529e-13
7772.12 2.5409e-13
7772.75 2.5404e-13
7773.39 2.5556e-13
7774.02 2.5433e-13
7774.66 2.5255e-13
7775.3 2.5429e-13
7775.93 2.5516e-13
7776.57 2.5332e-13
7777.2 2.5153e-13
7777.84 2.5288e-13
7778.47 2.5128e-13
7779.11 2.5156e-13
7779.74 2.516e-13
7780.38 2.5046e-13
7781.02 2.5197e-13
7781.65 2.498e-13
7782.29 2.5169e-13
7782.92 2.5263e-13
7783.56 2.5203e-13
7784.19 2.5056e-13
7784.83 2.5141e-13
7785.47 2.49e-13
7786.1 2.5031e-13
7786.74 2.5094e-13
7787.37 2.507e-13
7788.01 2.5005e-13
7788.64 2.5279e-13
7789.28 2.5036e-13
7789.92 2.5251e-13
7790.55 2.528e-13
7791.19 2.5062e-13
7791.82 2.4851e-13
7792.46 2.4977e-13
7793.09 2.4758e-13
7793.73 2.472e-13
7794.36 2.497e-13
7795.0 2.5073e-13
7795.64 2.4925e-13
7796.27 2.501e-13
7796.91 2.4918e-13
7797.54 2.4579e-13
7798.18 2.4775e-13
7798.81 2.4842e-13
7799.45 2.4719e-13
7800.09 2.5006e-13
7800.72 2.5052e-13
7801.36 2.5081e-13
7801.99 2.5093e-13
7802.63 2.5103e-13
7803.26 2.5063e-13
7803.9 2.4919e-13
7804.53 2.5045e-13
7805.17 2.4897e-13
7805.81 2.4913e-13
7806.44 2.5001e-13
7807.08 2.4941e-13
7807.71 2.4953e-13
7808.35 2.508e-13
7808.98 2.5272e-13
7809.62 2.5205e-13
7810.26 2.4679e-13
7810.89 2.4587e-13
7811.53 2.5099e-13
7812.16 2.5159e-13
7812.8 2.4951e-13
7813.43 2.4851e-13
7814.07 2.4874e-13
7814.7 2.4942e-13
7815.34 2.4926e-13
7815.98 2.4919e-13
7816.61 2.486e-13
7817.25 2.4718e-13
7817.88 2.4815e-13
7818.52 2.4787e-13
7819.15 2.4669e-13
7819.79 2.4776e-13
7820.43 2.4778e-13
7821.06 2.4676e-13
7821.7 2.4792e-13
7822.33 2.4848e-13
7822.97 2.4919e-13
7823.6 2.481e-13
7824.24 2.4745e-13
7824.87 2.4742e-13
7825.51 2.4671e-13
7826.15 2.4701e-13
7826.78 2.4667e-13
7827.42 2.4771e-13
7828.05 2.4687e-13
7828.69 2.4639e-13
7829.32 2.4724e-13
7829.96 2.4576e-13
7830.6 2.4704e-13
7831.23 2.4757e-13
7831.87 2.4566e-13
7832.5 2.4385e-13
7833.14 2.4527e-13
7833.77 2.4584e-13
7834.41 2.4541e-13
7835.04 2.452e-13
7835.68 2.4473e-13
7836.32 2.4468e-13
7836.95 2.4537e-13
7837.59 2.4484e-13
7838.22 2.4628e-13
7838.86 2.4575e-13
7839.49 2.4433e-13
7840.13 2.4603e-13
7840.77 2.4554e-13
7841.4 2.4435e-13
7842.04 2.434e-13
7842.67 2.4333e-13
7843.31 2.4522e-13
7843.94 2.4486e-13
7844.58 2.4265e-13
7845.21 2.425e-13
7845.85 2.4338e-13
7846.49 2.441e-13
7847.12 2.4345e-13
7847.76 2.4474e-13
7848.39 2.4604e-13
7849.03 2.4528e-13
7849.66 2.4548e-13
7850.3 2.4558e-13
7850.94 2.454e-13
7851.57 2.4718e-13
7852.21 2.4768e-13
7852.84 2.4459e-13
7853.48 2.4401e-13
7854.11 2.4427e-13
7854.75 2.4223e-13
7855.38 2.4173e-13
7856.02 2.4276e-13
7856.66 2.433e-13
7857.29 2.4182e-13
7857.93 2.4234e-13
7858.56 2.4274e-13
7859.2 2.4045e-13
7859.83 2.4104e-13
7860.47 2.4217e-13
7861.11 2.4189e-13
7861.74 2.4363e-13
7862.38 2.4434e-13
7863.01 2.4295e-13
7863.65 2.4257e-13
7864.28 2.4182e-13
7864.92 2.4225e-13
7865.55 2.4175e-13
7866.19 2.4098e-13
7866.83 2.4187e-13
7867.46 2.4108e-13
7868.1 2.4253e-13
7868.73 2.4294e-13
7869.37 2.4177e-13
7870.0 2.4195e-13
7870.64 2.4077e-13
7871.28 2.3949e-13
7871.91 2.3884e-13
7872.55 2.3947e-13
7873.18 2.3989e-13
7873.82 2.3914e-13
7874.45 2.3858e-13
7875.09 2.3892e-13
7875.72 2.3884e-13
7876.36 2.3794e-13
7877.0 2.3863e-13
7877.63 2.377e-13
7878.27 2.3815e-13
7878.9 2.3844e-13
7879.54 2.3862e-13
7880.17 2.3915e-13
7880.81 2.3849e-13
7881.45 2.3776e-13
7882.08 2.3902e-13
7882.72 2.3924e-13
7883.35 2.4077e-13
7883.99 2.4102e-13
7884.62 2.4017e-13
7885.26 2.3913e-13
7885.9 2.374e-13
7886.53 2.3755e-13
7887.17 2.3873e-13
7887.8 2.3697e-13
7888.44 2.3798e-13
7889.07 2.3887e-13
7889.71 2.3835e-13
7890.34 2.3738e-13
7890.98 2.3744e-13
7891.62 2.3942e-13
7892.25 2.3876e-13
7892.89 2.3741e-13
7893.52 2.3799e-13
7894.16 2.3792e-13
7894.79 2.3622e-13
7895.43 2.36e-13
7896.07 2.3802e-13
7896.7 2.3795e-13
7897.34 2.3644e-13
7897.97 2.3797e-13
7898.61 2.4173e-13
7899.24 2.4093e-13
7899.88 2.3777e-13
7900.51 2.3827e-13
7901.15 2.3656e-13
7901.79 2.338e-13
7902.42 2.339e-13
7903.06 2.343e-13
7903.69 2.3402e-13
7904.33 2.3556e-13
7904.96 2.3748e-13
7905.6 2.3621e-13
7906.24 2.3672e-13
7906.87 2.3695e-13
7907.51 2.3625e-13
7908.14 2.3328e-13
7908.78 2.3363e-13
7909.41 2.3416e-13
7910.05 2.335e-13
7910.68 2.3345e-13
7911.32 2.3425e-13
7911.96 2.3596e-13
7912.59 2.379e-13
7913.23 2.3674e-13
7913.86 2.3613e-13
7914.5 2.3542e-13
7915.13 2.3304e-13
7915.77 2.3198e-13
7916.41 2.3355e-13
7917.04 2.3134e-13
7917.68 2.3245e-13
7918.31 2.3231e-13
7918.95 2.3241e-13
7919.58 2.3187e-13
7920.22 2.3128e-13
7920.85 2.308e-13
7921.49 2.3108e-13
7922.13 2.3101e-13
7922.76 2.3041e-13
7923.4 2.3433e-13
7924.03 2.348e-13
7924.67 2.3336e-13
7925.3 2.329e-13
7925.94 2.3162e-13
7926.58 2.3271e-13
7927.21 2.3318e-13
7927.85 2.306e-13
7928.48 2.3204e-13
7929.12 2.337e-13
7929.75 2.3258e-13
7930.39 2.3292e-13
7931.02 2.349e-13
7931.66 2.3489e-13
7932.3 2.3463e-13
7932.93 2.3487e-13
7933.57 2.357e-13
7934.2 2.3624e-13
7934.84 2.3577e-13
7935.47 2.3435e-13
7936.11 2.3407e-13
7936.75 2.3387e-13
7937.38 2.3188e-13
7938.02 2.323e-13
7938.65 2.3375e-13
7939.29 2.3403e-13
7939.92 2.3432e-13
7940.56 2.3326e-13
7941.19 2.3404e-13
7941.83 2.3501e-13
7942.47 2.3508e-13
7943.1 2.3508e-13
7943.74 2.3346e-13
7944.37 2.331e-13
7945.01 2.3186e-13
7945.64 2.3173e-13
7946.28 2.3301e-13
7946.92 2.3447e-13
7947.55 2.3208e-13
7948.19 2.3174e-13
7948.82 2.3164e-13
7949.46 2.3124e-13
7950.09 2.3161e-13
7950.73 2.3184e-13
7951.36 2.308e-13
7952.0 2.3137e-13
7952.64 2.3198e-13
7953.27 2.32e-13
7953.91 2.3552e-13
7954.54 2.3426e-13
7955.18 2.3342e-13
7955.81 2.3341e-13
7956.45 2.3348e-13
7957.09 2.3232e-13
7957.72 2.3058e-13
7958.36 2.3141e-13
7958.99 2.3094e-13
7959.63 2.3095e-13
7960.26 2.3157e-13
7960.9 2.3097e-13
7961.53 2.2789e-13
7962.17 2.2954e-13
7962.81 2.309e-13
7963.44 2.3057e-13
7964.08 2.3225e-13
7964.71 2.3458e-13
7965.35 2.3478e-13
7965.98 2.3598e-13
7966.62 2.3444e-13
7967.26 2.3557e-13
7967.89 2.3519e-13
7968.53 2.3573e-13
7969.16 2.3705e-13
7969.8 2.3465e-13
7970.43 2.3476e-13
7971.07 2.3221e-13
7971.71 2.3325e-13
7972.34 2.3273e-13
7972.98 2.3221e-13
7973.61 2.3292e-13
7974.25 2.3327e-13
7974.88 2.349e-13
7975.52 2.3189e-13
7976.15 2.3255e-13
7976.79 2.3358e-13
7977.43 2.341e-13
7978.06 2.3327e-13
7978.7 2.3262e-13
7979.33 2.3342e-13
7979.97 2.3343e-13
7980.6 2.3328e-13
7981.24 2.3283e-13
7981.88 2.3209e-13
7982.51 2.3228e-13
7983.15 2.3406e-13
7983.78 2.3178e-13
7984.42 2.303e-13
7985.05 2.3233e-13
7985.69 2.3065e-13
7986.32 2.3209e-13
7986.96 2.3207e-13
7987.6 2.3002e-13
7988.23 2.3237e-13
7988.87 2.3186e-13
7989.5 2.3269e-13
7990.14 2.3204e-13
7990.77 2.3177e-13
7991.41 2.3271e-13
7992.05 2.3424e-13
7992.68 2.3435e-13
7993.32 2.3431e-13
7993.95 2.3636e-13
7994.59 2.338e-13
7995.22 2.3272e-13
7995.86 2.3221e-13
7996.49 2.3273e-13
7997.13 2.3294e-13
7997.77 2.3229e-13
7998.4 2.2995e-13
7999.04 2.312e-13
7999.67 2.3098e-13
8000.31 2.2948e-13
8000.94 2.3122e-13
8001.58 2.294e-13
8002.22 2.3187e-13
8002.85 2.3317e-13
8003.49 2.3371e-13
8004.12 2.3258e-13
8004.76 2.321e-13
8005.39 2.3279e-13
8006.03 2.3231e-13
8006.66 2.3192e-13
8007.3 2.2924e-13
8007.94 2.2994e-13
8008.57 2.3238e-13
8009.21 2.3508e-13
8009.84 2.3325e-13
8010.48 2.3459e-13
8011.11 2.3376e-13
8011.75 2.3415e-13
8012.39 2.3312e-13
8013.02 2.3096e-13
8013.66 2.2998e-13
8014.29 2.3006e-13
8014.93 2.3202e-13
8015.56 2.3359e-13
8016.2 2.3434e-13
8016.83 2.3218e-13
8017.47 2.3237e-13
8018.11 2.3269e-13
8018.74 2.3446e-13
8019.38 2.3477e-13
8020.01 2.34e-13
8020.65 2.3363e-13
8021.28 2.3274e-13
8021.92 2.3261e-13
8022.56 2.3181e-13
8023.19 2.3152e-13
8023.83 2.3192e-13
8024.46 2.2979e-13
8025.1 2.2989e-13
8025.73 2.308e-13
8026.37 2.2996e-13
8027.0 2.3014e-13
8027.64 2.3068e-13
8028.28 2.3136e-13
8028.91 2.3141e-13
8029.55 2.3319e-13
8030.18 2.3382e-13
8030.82 2.3375e-13
8031.45 2.3517e-13
8032.09 2.3315e-13
8032.73 2.3188e-13
8033.36 2.3366e-13
8034.0 2.3482e-13
8034.63 2.3323e-13
8035.27 2.3151e-13
8035.9 2.3219e-13
8036.54 2.3113e-13
8037.17 2.2943e-13
8037.81 2.2999e-13
8038.45 2.296e-13
8039.08 2.2866e-13
8039.72 2.3159e-13
8040.35 2.3155e-13
8040.99 2.3217e-13
8041.62 2.3166e-13
8042.26 2.2993e-13
8042.9 2.3014e-13
8043.53 2.3122e-13
8044.17 2.3169e-13
8044.8 2.3142e-13
8045.44 2.3073e-13
8046.07 2.3066e-13
8046.71 2.3046e-13
8047.34 2.2933e-13
8047.98 2.3046e-13
8048.62 2.3136e-13
8049.25 2.3003e-13
8049.89 2.2989e-13
8050.52 2.2832e-13
8051.16 2.272e-13
8051.79 2.2691e-13
8052.43 2.2725e-13
8053.07 2.2793e-13
8053.7 2.274e-13
8054.34 2.2607e-13
8054.97 2.2795e-13
8055.61 2.2937e-13
8056.24 2.2813e-13
8056.88 2.288e-13
8057.52 2.291e-13
8058.15 2.2831e-13
8058.79 2.2763e-13
8059.42 2.2748e-13
8060.06 2.2837e-13
8060.69 2.2924e-13
8061.33 2.2801e-13
8061.96 2.264e-13
8062.6 2.2592e-13
8063.24 2.2496e-13
8063.87 2.2605e-13
8064.51 2.2774e-13
8065.14 2.2889e-13
8065.78 2.2904e-13
8066.41 2.2967e-13
8067.05 2.2857e-13
8067.69 2.2747e-13
8068.32 2.2895e-13
8068.96 2.2763e-13
8069.59 2.2606e-13
8070.23 2.2761e-13
8070.86 2.2841e-13
8071.5 2.2799e-13
8072.13 2.2774e-13
8072.77 2.2855e-13
8073.41 2.31e-13
8074.04 2.3064e-13
8074.68 2.3049e-13
8075.31 2.3146e-13
8075.95 2.2773e-13
8076.58 2.2629e-13
8077.22 2.277e-13
8077.86 2.2654e-13
8078.49 2.2754e-13
8079.13 2.2987e-13
8079.76 2.2869e-13
8080.4 2.2661e-13
8081.03 2.2511e-13
8081.67 2.2637e-13
8082.3 2.2739e-13
8082.94 2.2668e-13
8083.58 2.2716e-13
8084.21 2.2731e-13
8084.85 2.2641e-13
8085.48 2.2513e-13
8086.12 2.2507e-13
8086.75 2.2574e-13
8087.39 2.2767e-13
8088.03 2.2762e-13
8088.66 2.2701e-13
8089.3 2.2596e-13
8089.93 2.263e-13
8090.57 2.2691e-13
8091.2 2.2725e-13
8091.84 2.276e-13
8092.47 2.257e-13
8093.11 2.2675e-13
8093.75 2.2713e-13
8094.38 2.2554e-13
8095.02 2.2472e-13
8095.65 2.2392e-13
8096.29 2.2261e-13
8096.92 2.2296e-13
8097.56 2.2536e-13
8098.2 2.2655e-13
8098.83 2.2632e-13
8099.47 2.227e-13
8100.1 2.2176e-13
8100.74 2.2465e-13
8101.37 2.2721e-13
8102.01 2.2698e-13
8102.64 2.2447e-13
8103.28 2.2361e-13
8103.92 2.2434e-13
8104.55 2.2593e-13
8105.19 2.2607e-13
8105.82 2.2609e-13
8106.46 2.2496e-13
8107.09 2.2421e-13
8107.73 2.2481e-13
8108.37 2.2399e-13
8109.0 2.2418e-13
8109.64 2.2535e-13
8110.27 2.2517e-13
8110.91 2.2542e-13
8111.54 2.2546e-13
8112.18 2.2461e-13
8112.81 2.2484e-13
8113.45 2.241e-13
8114.09 2.2264e-13
8114.72 2.2276e-13
8115.36 2.2352e-13
8115.99 2.2397e-13
8116.63 2.2352e-13
8117.26 2.2425e-13
8117.9 2.2565e-13
8118.54 2.2372e-13
8119.17 2.2049e-13
8119.81 2.2025e-13
8120.44 2.191e-13
8121.08 2.2151e-13
8121.71 2.2458e-13
8122.35 2.2947e-13
8122.98 2.2805e-13
8123.62 2.22e-13
8124.26 2.2091e-13
8124.89 2.2295e-13
8125.53 2.2534e-13
8126.16 2.2245e-13
8126.8 2.2462e-13
8127.43 2.2327e-13
8128.07 2.2179e-13
8128.71 2.1696e-13
8129.34 2.1727e-13
8129.98 2.2414e-13
8130.61 2.259e-13
8131.25 2.224e-13
8131.88 2.1938e-13
8132.52 2.2101e-13
8133.15 2.2485e-13
8133.79 2.241e-13
8134.43 2.2724e-13
8135.06 2.2065e-13
8135.7 2.1537e-13
8136.33 2.1614e-13
8136.97 2.1581e-13
8137.6 2.2106e-13
8138.24 2.2073e-13
8138.88 2.2128e-13
8139.51 2.2293e-13
8140.15 2.215e-13
8140.78 2.2362e-13
8141.42 2.2373e-13
8142.05 2.1673e-13
8142.69 2.1959e-13
8143.33 2.2325e-13
8143.96 2.218e-13
8144.6 2.2051e-13
8145.23 2.1885e-13
8145.87 2.2265e-13
8146.5 2.2273e-13
8147.14 2.2093e-13
8147.77 2.2067e-13
8148.41 2.1958e-13
8149.05 2.2135e-13
8149.68 2.2263e-13
8150.32 2.2223e-13
8150.95 2.1774e-13
8151.59 2.1752e-13
8152.22 2.2201e-13
8152.86 2.1913e-13
8153.5 2.1547e-13
8154.13 2.194e-13
8154.77 2.2168e-13
8155.4 2.2318e-13
8156.04 2.2252e-13
8156.67 2.1536e-13
8157.31 2.1188e-13
8157.94 2.1671e-13
8158.58 2.2733e-13
8159.22 2.2962e-13
8159.85 2.2225e-13
8160.49 2.1955e-13
8161.12 2.207e-13
8161.76 2.2365e-13
8162.39 2.3125e-13
8163.03 2.2786e-13
8163.67 2.1582e-13
8164.3 2.139e-13
8164.94 2.2215e-13
8165.57 2.206e-13
8166.21 2.1545e-13
8166.84 2.1769e-13
8167.48 2.1965e-13
8168.11 2.2186e-13
8168.75 2.1746e-13
8169.39 2.1967e-13
8170.02 2.2096e-13
8170.66 2.1912e-13
8171.29 2.1851e-13
8171.93 2.1103e-13
8172.56 2.1107e-13
8173.2 2.1963e-13
8173.84 2.2142e-13
8174.47 2.2597e-13
8175.11 2.288e-13
8175.74 2.2288e-13
8176.38 2.1986e-13
8177.01 2.2636e-13
8177.65 2.2741e-13
8178.28 2.2376e-13
8178.92 2.1709e-13
8179.56 2.1458e-13
8180.19 2.1105e-13
8180.83 2.0926e-13
8181.46 2.1269e-13
8182.1 2.1374e-13
8182.73 2.169e-13
8183.37 2.1982e-13
8184.01 2.1901e-13
8184.64 2.1389e-13
8185.28 2.1495e-13
8185.91 2.2441e-13
8186.55 2.2495e-13
8187.18 2.2144e-13
8187.82 2.1775e-13
8188.45 2.1403e-13
8189.09 2.1556e-13
8189.73 2.1999e-13
8190.36 2.1917e-13
8191.0 2.1831e-13
8191.63 2.1599e-13
8192.27 2.148e-13
8192.9 2.1383e-13
8193.54 2.1448e-13
8194.18 2.1575e-13
8194.81 2.2009e-13
8195.45 2.1823e-13
8196.08 2.1272e-13
8196.72 2.1305e-13
8197.35 2.1257e-13
8197.99 2.1537e-13
8198.62 2.1316e-13
8199.26 2.0876e-13
8199.9 2.1109e-13
8200.53 2.1298e-13
8201.17 2.1453e-13
8201.8 2.118e-13
8202.44 2.1114e-13
8203.07 2.1405e-13
8203.71 2.138e-13
8204.35 2.1107e-13
8204.98 2.1333e-13
8205.62 2.1537e-13
8206.25 2.1412e-13
8206.89 2.1484e-13
8207.52 2.1575e-13
8208.16 2.1347e-13
8208.79 2.0911e-13
8209.43 2.1022e-13
8210.07 2.1165e-13
8210.7 2.1177e-13
8211.34 2.1433e-13
8211.97 2.1245e-13
8212.61 2.1127e-13
8213.24 2.1023e-13
8213.88 2.0785e-13
8214.52 2.102e-13
8215.15 2.1262e-13
8215.79 2.1042e-13
8216.42 2.1062e-13
8217.06 2.0921e-13
8217.69 2.0694e-13
8218.33 2.0488e-13
8218.96 2.0264e-13
8219.6 2.0483e-13
8220.24 2.0664e-13
8220.87 2.1012e-13
8221.51 2.0799e-13
8222.14 2.0802e-13
8222.78 2.0805e-13
8223.41 2.0809e-13
8224.05 2.0812e-13
8224.69 2.0815e-13
8225.32 2.0819e-13
8225.96 2.0822e-13
8226.59 2.0825e-13
8227.23 2.0829e-13
8227.86 2.0832e-13
8228.5 2.0835e-13
8229.13 2.0838e-13
8229.77 2.0842e-13
8230.41 2.0845e-13
8231.04 2.0848e-13
8231.68 2.0852e-13
8232.31 2.0855e-13
8232.95 2.0858e-13
8233.58 2.0862e-13
8234.22 2.0865e-13
8234.86 2.0868e-13
8235.49 2.0872e-13
8236.13 2.0875e-13
8236.76 2.0878e-13
8237.4 2.0882e-13
8238.03 2.0885e-13
8238.67 2.0888e-13
8239.31 2.0891e-13
8239.94 2.0895e-13
8240.58 2.1233e-13
8241.21 2.1531e-13
8241.85 2.129e-13
8242.48 2.0784e-13
8243.12 2.0796e-13
8243.75 2.1066e-13
8244.39 2.111e-13
8245.03 2.0591e-13
8245.66 2.0547e-13
8246.3 2.0903e-13
8246.93 2.0788e-13
8247.57 2.0728e-13
8248.2 2.1248e-13
8248.84 2.1212e-13
8249.48 2.0517e-13
8250.11 2.0488e-13
8250.75 2.0569e-13
8251.38 2.1348e-13
8252.02 2.1254e-13
8252.65 2.0641e-13
8253.29 2.1052e-13
8253.92 2.131e-13
8254.56 2.116e-13
8255.2 2.093e-13
8255.83 2.0537e-13
8256.47 2.061e-13
8257.1 2.0742e-13
8257.74 2.0889e-13
8258.37 2.0502e-13
8259.01 2.0736e-13
8259.65 2.052e-13
8260.28 2.0739e-13
8260.92 2.1016e-13
8261.55 2.066e-13
8262.19 2.0509e-13
8262.82 2.0641e-13
8263.46 2.0901e-13
8264.09 2.0793e-13
8264.73 2.0904e-13
8265.37 2.0955e-13
8266.0 2.0716e-13
8266.64 2.0252e-13
8267.27 2.0577e-13
8267.91 2.0677e-13
8268.54 2.0377e-13
8269.18 2.0424e-13
8269.82 2.0728e-13
8270.45 2.0474e-13
8271.09 2.0543e-13
8271.72 2.052e-13
8272.36 2.0666e-13
8272.99 2.1058e-13
8273.63 2.0837e-13
8274.26 2.1076e-13
8274.9 2.1495e-13
8275.54 2.1194e-13
8276.17 2.0287e-13
8276.81 2.0278e-13
8277.44 2.0654e-13
8278.08 2.034e-13
8278.71 2.0133e-13
8279.35 2.0276e-13
8279.99 2.0941e-13
8280.62 2.1276e-13
8281.26 2.0557e-13
8281.89 2.0193e-13
8282.53 2.0645e-13
8283.16 2.0438e-13
8283.8 2.0043e-13
8284.43 2.0231e-13
8285.07 2.0663e-13
8285.71 2.1069e-13
8286.34 2.109e-13
8286.98 2.0946e-13
8287.61 2.0796e-13
8288.25 2.0712e-13
8288.88 2.0642e-13
8289.52 2.0745e-13
8290.16 2.0589e-13
8290.79 2.0332e-13
8291.43 2.0463e-13
8292.06 2.0726e-13
8292.7 2.0678e-13
8293.33 2.0172e-13
8293.97 2.0397e-13
8294.6 2.0889e-13
8295.24 2.1153e-13
8295.88 2.0882e-13
8296.51 2.0512e-13
8297.15 2.0575e-13
8297.78 2.052e-13
8298.42 2.1144e-13
8299.05 2.1101e-13
8299.69 2.0747e-13
8300.33 2.0776e-13
8300.96 2.1153e-13
8301.6 2.0731e-13
8302.23 1.9997e-13
8302.87 2.0526e-13
8303.5 2.0629e-13
8304.14 2.0404e-13
8304.77 2.06e-13
8305.41 2.0813e-13
8306.05 2.0498e-13
8306.68 2.0082e-13
8307.32 2.0315e-13
8307.95 2.0504e-13
8308.59 2.0319e-13
8309.22 2.0311e-13
8309.86 2.0739e-13
8310.5 2.0913e-13
8311.13 2.0979e-13
8311.77 2.0816e-13
8312.4 2.0777e-13
8313.04 2.053e-13
8313.67 2.0385e-13
8314.31 2.044e-13
8314.94 2.0745e-13
8315.58 2.0731e-13
8316.22 2.0764e-13
8316.85 2.0563e-13
8317.49 2.0387e-13
8318.12 2.115e-13
8318.76 2.1517e-13
8319.39 2.1526e-13
8320.03 2.0867e-13
8320.67 2.0649e-13
8321.3 2.0647e-13
8321.94 2.0586e-13
8322.57 2.0813e-13
8323.21 2.0413e-13
8323.84 2.0262e-13
8324.48 2.0581e-13
8325.12 2.0671e-13
8325.75 2.0588e-13
8326.39 2.0575e-13
8327.02 2.06e-13
8327.66 2.049e-13
8328.29 2.0431e-13
8328.93 2.0351e-13
8329.56 2.0245e-13
8330.2 2.0171e-13
8330.84 2.0174e-13
8331.47 2.0239e-13
8332.11 2.0348e-13
8332.74 2.0489e-13
8333.38 2.0493e-13
8334.01 2.05e-13
8334.65 2.0455e-13
8335.29 2.0325e-13
8335.92 2.0233e-13
8336.56 2.0519e-13
8337.19 2.0605e-13
8337.83 2.0552e-13
8338.46 2.0254e-13
8339.1 2.0152e-13
8339.73 2.0108e-13
8340.37 2.0067e-13
8341.01 2.025e-13
8341.64 2.0363e-13
8342.28 2.0602e-13
8342.91 2.0326e-13
8343.55 2.0391e-13
8344.18 2.0514e-13
8344.82 2.0791e-13
8345.46 2.0731e-13
8346.09 2.0701e-13
8346.73 2.077e-13
8347.36 2.063e-13
8348.0 2.0428e-13
8348.63 2.0271e-13
8349.27 2.0131e-13
8349.9 2.0285e-13
8350.54 2.0174e-13
8351.18 2.0301e-13
8351.81 2.0484e-13
8352.45 2.0349e-13
8353.08 2.0342e-13
8353.72 2.0315e-13
8354.35 2.0101e-13
8354.99 1.9936e-13
8355.63 2.0094e-13
8356.26 2.0202e-13
8356.9 2.0162e-13
8357.53 2.0158e-13
8358.17 2.0024e-13
8358.8 2.0254e-13
8359.44 2.0391e-13
8360.07 2.031e-13
8360.71 2.0455e-13
8361.35 2.0548e-13
8361.98 2.0605e-13
8362.62 2.0531e-13
8363.25 2.0482e-13
8363.89 2.0478e-13
8364.52 2.0534e-13
8365.16 2.0619e-13
8365.8 2.0702e-13
8366.43 2.0496e-13
8367.07 2.0238e-13
8367.7 2.0284e-13
8368.34 2.0388e-13
8368.97 2.0414e-13
8369.61 2.0445e-13
8370.24 2.0608e-13
8370.88 2.0678e-13
8371.52 2.0662e-13
8372.15 2.0609e-13
8372.79 2.0511e-13
8373.42 2.0535e-13
8374.06 2.039e-13
8374.69 2.0278e-13
8375.33 2.0326e-13
8375.97 2.0313e-13
8376.6 2.0373e-13
8377.24 2.0461e-13
8377.87 2.0427e-13
8378.51 2.0432e-13
8379.14 2.0603e-13
8379.78 2.0688e-13
8380.41 2.0776e-13
8381.05 2.0895e-13
8381.69 2.0857e-13
8382.32 2.0901e-13
8382.96 2.1081e-13
8383.59 2.1077e-13
8384.23 2.0956e-13
8384.86 2.0721e-13
8385.5 2.0549e-13
8386.14 2.0721e-13
8386.77 2.0731e-13
8387.41 2.0607e-13
8388.04 2.0819e-13
8388.68 2.0929e-13
8389.31 2.0597e-13
8389.95 2.0524e-13
8390.58 2.0827e-13
8391.22 2.0899e-13
8391.86 2.0721e-13
8392.49 2.0577e-13
8393.13 2.0654e-13
8393.76 2.0526e-13
8394.4 2.0427e-13
8395.03 2.0659e-13
8395.67 2.0705e-13
8396.31 2.0511e-13
8396.94 2.0379e-13
8397.58 2.0653e-13
8398.21 2.0754e-13
8398.85 2.069e-13
8399.48 2.0688e-13
8400.12 2.0745e-13
8400.75 2.0666e-13
8401.39 2.0556e-13
8402.03 2.0647e-13
8402.66 2.0675e-13
8403.3 2.0611e-13
8403.93 2.0658e-13
8404.57 2.0684e-13
8405.2 2.0754e-13
8405.84 2.0714e-13
8406.48 2.0545e-13
8407.11 2.0588e-13
8407.75 2.0736e-13
8408.38 2.0679e-13
8409.02 2.0495e-13
8409.65 2.0635e-13
8410.29 2.0918e-13
8410.93 2.0923e-13
8411.56 2.091e-13
8412.2 2.097e-13
8412.83 2.0866e-13
8413.47 2.0698e-13
8414.1 2.0556e-13
8414.74 2.0533e-13
8415.37 2.0625e-13
8416.01 2.0673e-13
8416.65 2.0763e-13
8417.28 2.0743e-13
8417.92 2.0605e-13
8418.55 2.0543e-13
8419.19 2.0468e-13
8419.82 2.0409e-13
8420.46 2.0478e-13
8421.1 2.0579e-13
8421.73 2.05e-13
8422.37 2.06e-13
8423.0 2.071e-13
8423.64 2.0605e-13
8424.27 2.0556e-13
8424.91 2.051e-13
8425.54 2.0642e-13
8426.18 2.0707e-13
8426.82 2.0568e-13
8427.45 2.0578e-13
8428.09 2.0864e-13
8428.72 2.0984e-13
8429.36 2.0963e-13
8429.99 2.091e-13
8430.63 2.0765e-13
8431.27 2.0798e-13
8431.9 2.0832e-13
8432.54 2.0839e-13
8433.17 2.0884e-13
8433.81 2.0838e-13
8434.44 2.0686e-13
8435.08 2.0707e-13
8435.71 2.0733e-13
8436.35 2.0745e-13
8436.99 2.0651e-13
8437.62 2.05e-13
8438.26 2.0553e-13
8438.89 2.0619e-13
8439.53 2.0594e-13
8440.16 2.0578e-13
8440.8 2.0703e-13
8441.44 2.0797e-13
8442.07 2.0831e-13
8442.71 2.0846e-13
8443.34 2.0827e-13
8443.98 2.0918e-13
8444.61 2.0965e-13
8445.25 2.0888e-13
8445.88 2.0776e-13
8446.52 2.0717e-13
8447.16 2.0708e-13
8447.79 2.0656e-13
8448.43 2.0635e-13
8449.06 2.0533e-13
8449.7 2.0542e-13
8450.33 2.0609e-13
8450.97 2.0504e-13
8451.61 2.0512e-13
8452.24 2.066e-13
8452.88 2.0801e-13
8453.51 2.0726e-13
8454.15 2.0538e-13
8454.78 2.0573e-13
8455.42 2.0724e-13
8456.05 2.0826e-13
8456.69 2.0859e-13
8457.33 2.089e-13
8457.96 2.0892e-13
8458.6 2.0861e-13
8459.23 2.0852e-13
8459.87 2.088e-13
8460.5 2.0906e-13
8461.14 2.0724e-13
8461.78 2.059e-13
8462.41 2.0675e-13
8463.05 2.0744e-13
8463.68 2.0749e-13
8464.32 2.0802e-13
8464.95 2.0746e-13
8465.59 2.0651e-13
8466.22 2.0792e-13
8466.86 2.0811e-13
8467.5 2.0654e-13
8468.13 2.051e-13
8468.77 2.0447e-13
8469.4 2.0582e-13
8470.04 2.0582e-13
8470.67 2.0629e-13
8471.31 2.0668e-13
8471.95 2.0674e-13
8472.58 2.057e-13
8473.22 2.0448e-13
8473.85 2.0725e-13
8474.49 2.0786e-13
8475.12 2.0748e-13
8475.76 2.064e-13
8476.39 2.0789e-13
8477.03 2.0754e-13
8477.67 2.0545e-13
8478.3 2.0521e-13
8478.94 2.0511e-13
8479.57 2.0457e-13
8480.21 2.037e-13
8480.84 2.0385e-13
8481.48 2.0479e-13
8482.12 2.0499e-13
8482.75 2.0404e-13
8483.39 2.0473e-13
8484.02 2.0589e-13
8484.66 2.0596e-13
8485.29 2.0635e-13
8485.93 2.0551e-13
8486.56 2.052e-13
8487.2 2.0719e-13
8487.84 2.0832e-13
8488.47 2.076e-13
8489.11 2.0796e-13
8489.74 2.0812e-13
8490.38 2.075e-13
8491.01 2.0899e-13
8491.65 2.0909e-13
8492.29 2.0792e-13
8492.92 2.0762e-13
8493.56 2.0784e-13
8494.19 2.0714e-13
8494.83 2.07e-13
8495.46 2.0844e-13
8496.1 2.0874e-13
8496.73 2.0838e-13
8497.37 2.0855e-13
8498.01 2.087e-13
8498.64 2.0806e-13
8499.28 2.0659e-13
8499.91 2.0728e-13
8500.55 2.0752e-13
8501.18 2.0717e-13
8501.82 2.0885e-13
8502.46 2.0811e-13
8503.09 2.065e-13
8503.73 2.0703e-13
8504.36 2.0726e-13
8505.0 2.0626e-13
8505.63 2.0559e-13
8506.27 2.0599e-13
8506.91 2.0804e-13
8507.54 2.0801e-13
8508.18 2.0804e-13
8508.81 2.0781e-13
8509.45 2.0736e-13
8510.08 2.0662e-13
8510.72 2.0692e-13
8511.35 2.0713e-13
8511.99 2.0595e-13
8512.63 2.0453e-13
8513.26 2.0511e-13
8513.9 2.0535e-13
8514.53 2.0573e-13
8515.17 2.0762e-13
8515.8 2.0812e-13
8516.44 2.0555e-13
8517.08 2.0404e-13
8517.71 2.0591e-13
8518.35 2.0784e-13
8518.98 2.0755e-13
8519.62 2.0448e-13
8520.25 2.0379e-13
8520.89 2.0497e-13
8521.52 2.0718e-13
8522.16 2.0788e-13
8522.8 2.0616e-13
8523.43 2.0536e-13
8524.07 2.0494e-13
8524.7 2.0451e-13
8525.34 2.0673e-13
8525.97 2.0611e-13
8526.61 2.0521e-13
8527.25 2.0609e-13
8527.88 2.0541e-13
8528.52 2.0299e-13
8529.15 2.0287e-13
8529.79 2.053e-13
8530.42 2.0627e-13
8531.06 2.0553e-13
8531.69 2.051e-13
8532.33 2.0463e-13
8532.97 2.0634e-13
8533.6 2.0652e-13
8534.24 2.0508e-13
8534.87 2.0474e-13
8535.51 2.0601e-13
8536.14 2.0618e-13
8536.78 2.0574e-13
8537.42 2.0397e-13
8538.05 2.0277e-13
8538.69 2.0399e-13
8539.32 2.0459e-13
8539.96 2.0378e-13
8540.59 2.0458e-13
8541.23 2.0536e-13
8541.86 2.043e-13
8542.5 2.0444e-13
8543.14 2.0501e-13
8543.77 2.0533e-13
8544.41 2.0537e-13
8545.04 2.0447e-13
8545.68 2.041e-13
8546.31 2.0433e-13
8546.95 2.0571e-13
8547.59 2.0516e-13
8548.22 2.025e-13
8548.86 2.0213e-13
8549.49 2.0224e-13
8550.13 2.0347e-13
8550.76 2.0495e-13
8551.4 2.0362e-13
8552.03 2.028e-13
8552.67 2.0329e-13
8553.31 2.0365e-13
8553.94 2.0342e-13
8554.58 2.0188e-13
8555.21 2.0304e-13
8555.85 2.0447e-13
8556.48 2.0305e-13
8557.12 2.0357e-13
8557.76 2.0611e-13
8558.39 2.0524e-13
8559.03 2.034e-13
8559.66 2.0312e-13
8560.3 2.0635e-13
8560.93 2.0773e-13
8561.57 2.0376e-13
8562.2 2.0302e-13
8562.84 2.0459e-13
8563.48 2.0597e-13
8564.11 2.0681e-13
8564.75 2.0552e-13
8565.38 2.0489e-13
8566.02 2.0415e-13
8566.65 2.0397e-13
8567.29 2.0482e-13
8567.93 2.0513e-13
8568.56 2.0543e-13
8569.2 2.05e-13
8569.83 2.023e-13
8570.47 2.0165e-13
8571.1 2.0239e-13
8571.74 2.0321e-13
8572.37 2.0288e-13
8573.01 2.0281e-13
8573.65 2.0247e-13
8574.28 2.0216e-13
8574.92 2.028e-13
8575.55 2.0231e-13
8576.19 2.0292e-13
8576.82 2.0429e-13
8577.46 2.0395e-13
8578.1 2.0429e-13
8578.73 2.0367e-13
8579.37 2.0282e-13
8580.0 2.0365e-13
8580.64 2.0504e-13
8581.27 2.04e-13
8581.91 2.0069e-13
8582.54 2.0029e-13
8583.18 2.0261e-13
8583.82 2.0421e-13
8584.45 2.0302e-13
8585.09 2.0101e-13
8585.72 2.0206e-13
8586.36 2.0472e-13
8586.99 2.0511e-13
8587.63 2.0354e-13
8588.27 2.022e-13
8588.9 2.0195e-13
8589.54 2.0351e-13
8590.17 2.0395e-13
8590.81 2.041e-13
8591.44 2.0636e-13
8592.08 2.0594e-13
8592.72 2.0472e-13
8593.35 2.059e-13
8593.99 2.0549e-13
8594.62 2.0493e-13
8595.26 2.0554e-13
8595.89 2.066e-13
8596.53 2.072e-13
8597.16 2.0585e-13
8597.8 2.0431e-13
8598.44 2.0399e-13
8599.07 2.045e-13
8599.71 2.0258e-13
8600.34 2.0167e-13
8600.98 2.0332e-13
8601.61 2.0386e-13
8602.25 2.0428e-13
8602.89 2.0349e-13
8603.52 2.0274e-13
8604.16 2.0218e-13
8604.79 2.0154e-13
8605.43 2.0045e-13
8606.06 1.9915e-13
8606.7 1.9971e-13
8607.33 2.0124e-13
8607.97 2.0027e-13
8608.61 2.0001e-13
8609.24 2.0047e-13
8609.88 1.9913e-13
8610.51 1.968e-13
8611.15 1.9671e-13
8611.78 1.9702e-13
8612.42 1.9754e-13
8613.06 1.9934e-13
8613.69 1.9869e-13
8614.33 1.9775e-13
8614.96 1.9876e-13
8615.6 1.997e-13
8616.23 2.0056e-13
8616.87 1.9973e-13
8617.5 1.9899e-13
8618.14 1.9993e-13
8618.78 2.0043e-13
8619.41 1.9901e-13
8620.05 1.9729e-13
8620.68 1.991e-13
8621.32 2.0038e-13
8621.95 1.9949e-13
8622.59 1.9964e-13
8623.23 1.9878e-13
8623.86 1.9702e-13
8624.5 1.9778e-13
8625.13 1.9961e-13
8625.77 2.0081e-13
8626.4 2.0065e-13
8627.04 1.9985e-13
8627.67 1.9958e-13
8628.31 2.0038e-13
8628.95 2.0007e-13
8629.58 1.9797e-13
8630.22 1.9747e-13
8630.85 1.9801e-13
8631.49 1.9849e-13
8632.12 1.9857e-13
8632.76 1.9664e-13
8633.4 1.9614e-13
8634.03 1.9773e-13
8634.67 1.9643e-13
8635.3 1.9606e-13
8635.94 1.9793e-13
8636.57 1.9775e-13
8637.21 1.9645e-13
8637.84 1.9778e-13
8638.48 1.986e-13
8639.12 1.977e-13
8639.75 1.986e-13
8640.39 1.9879e-13
8641.02 1.9778e-13
8641.66 1.9869e-13
8642.29 1.9789e-13
8642.93 1.9755e-13
8643.57 1.9795e-13
8644.2 1.9749e-13
8644.84 1.9712e-13
8645.47 1.9708e-13
8646.11 1.9945e-13
8646.74 1.996e-13
8647.38 1.9922e-13
8648.01 2.011e-13
8648.65 1.9822e-13
8649.29 1.9674e-13
8649.92 1.9779e-13
8650.56 1.9885e-13
8651.19 1.9861e-13
8651.83 1.9701e-13
8652.46 1.9748e-13
8653.1 1.9917e-13
8653.74 1.9876e-13
8654.37 1.9875e-13
8655.01 1.9774e-13
8655.64 1.9703e-13
8656.28 1.9722e-13
8656.91 1.9901e-13
8657.55 2.0024e-13
8658.18 1.9958e-13
8658.82 1.9782e-13
8659.46 1.9761e-13
8660.09 1.9873e-13
8660.73 1.9825e-13
8661.36 1.9792e-13
8662.0 1.9786e-13
8662.63 1.9842e-13
8663.27 1.9886e-13
8663.91 1.9871e-13
8664.54 1.9823e-13
8665.18 1.991e-13
8665.81 1.9865e-13
8666.45 1.982e-13
8667.08 1.9985e-13
8667.72 1.9874e-13
8668.35 1.9757e-13
8668.99 1.9783e-13
8669.63 1.9772e-13
8670.26 1.9894e-13
8670.9 1.9892e-13
8671.53 1.9765e-13
8672.17 1.9778e-13
8672.8 1.9816e-13
8673.44 1.9843e-13
8674.08 1.9854e-13
8674.71 1.9794e-13
8675.35 1.979e-13
8675.98 1.9786e-13
8676.62 1.9624e-13
8677.25 1.9644e-13
8677.89 1.9848e-13
8678.53 1.9739e-13
8679.16 1.9529e-13
8679.8 1.9593e-13
8680.43 1.9669e-13
8681.07 1.975e-13
8681.7 1.9888e-13
8682.34 1.988e-13
8682.97 1.9942e-13
8683.61 1.9813e-13
8684.25 1.9675e-13
8684.88 1.9785e-13
8685.52 1.9653e-13
8686.15 1.9757e-13
8686.79 1.9824e-13
8687.42 1.9612e-13
8688.06 1.9752e-13
8688.7 1.991e-13
8689.33 1.9862e-13
8689.97 1.9768e-13
8690.6 1.9765e-13
8691.24 1.955e-13
8691.87 1.9511e-13
8692.51 1.9797e-13
8693.14 1.9609e-13
8693.78 1.959e-13
8694.42 1.9586e-13
8695.05 1.9527e-13
8695.69 1.9468e-13
8696.32 1.9477e-13
8696.96 1.9651e-13
8697.59 1.9642e-13
8698.23 1.9501e-13
8698.87 1.939e-13
8699.5 1.9525e-13
8700.14 1.9609e-13
8700.77 1.9629e-13
8701.41 1.9567e-13
8702.04 1.9535e-13
8702.68 1.9547e-13
8703.31 1.962e-13
8703.95 1.9536e-13
8704.59 1.9453e-13
8705.22 1.9619e-13
8705.86 1.9656e-13
8706.49 1.9647e-13
8707.13 1.9537e-13
8707.76 1.9397e-13
8708.4 1.9466e-13
8709.04 1.9817e-13
8709.67 1.9776e-13
8710.31 1.9632e-13
8710.94 1.9642e-13
8711.58 1.9568e-13
8712.21 1.9461e-13
8712.85 1.941e-13
8713.48 1.9395e-13
8714.12 1.9371e-13
8714.76 1.934e-13
8715.39 1.9259e-13
8716.03 1.9131e-13
8716.66 1.9088e-13
8717.3 1.9296e-13
8717.93 1.9457e-13
8718.57 1.9509e-13
8719.21 1.9476e-13
8719.84 1.9326e-13
8720.48 1.9335e-13
8721.11 1.9303e-13
8721.75 1.9296e-13
8722.38 1.9359e-13
8723.02 1.9565e-13
8723.65 1.934e-13
8724.29 1.9386e-13
8724.93 1.9517e-13
8725.56 1.9349e-13
8726.2 1.9119e-13
8726.83 1.9323e-13
8727.47 1.9347e-13
8728.1 1.9402e-13
8728.74 1.9499e-13
8729.38 1.9291e-13
8730.01 1.9237e-13
8730.65 1.9256e-13
8731.28 1.937e-13
8731.92 1.9288e-13
8732.55 1.9216e-13
8733.19 1.9309e-13
8733.82 1.9325e-13
8734.46 1.929e-13
8735.1 1.9264e-13
8735.73 1.9349e-13
8736.37 1.9226e-13
8737.0 1.8997e-13
8737.64 1.9331e-13
8738.27 1.9614e-13
8738.91 1.9625e-13
8739.55 1.9598e-13
8740.18 1.9802e-13
8740.82 1.9997e-13
8741.45 1.9824e-13
8742.09 1.9831e-13
8742.72 1.9899e-13
8743.36 1.9938e-13
8743.99 2.008e-13
8744.63 1.9927e-13
8745.27 1.9964e-13
8745.9 1.9832e-13
8746.54 1.9856e-13
8747.17 1.9899e-13
8747.81 1.9862e-13
8748.44 1.9744e-13
8749.08 1.9611e-13
8749.72 1.9574e-13
8750.35 1.9454e-13
8750.99 1.9456e-13
8751.62 1.9449e-13
8752.26 1.9413e-13
8752.89 1.9522e-13
8753.53 1.9425e-13
8754.16 1.9558e-13
8754.8 1.958e-13
8755.44 1.9409e-13
8756.07 1.9512e-13
8756.71 1.9618e-13
8757.34 1.9552e-13
8757.98 1.943e-13
8758.61 1.9454e-13
8759.25 1.9389e-13
8759.89 1.9267e-13
8760.52 1.929e-13
8761.16 1.9328e-13
8761.79 1.9412e-13
8762.43 1.9229e-13
8763.06 1.9003e-13
8763.7 1.9175e-13
8764.34 1.9325e-13
8764.97 1.9296e-13
8765.61 1.919e-13
8766.24 1.9164e-13
8766.88 1.9194e-13
8767.51 1.906e-13
8768.15 1.9058e-13
8768.78 1.9324e-13
8769.42 1.8981e-13
8770.06 1.8839e-13
8770.69 1.9063e-13
8771.33 1.8969e-13
8771.96 1.899e-13
8772.6 1.8857e-13
8773.23 1.9078e-13
8773.87 1.8892e-13
8774.51 1.8892e-13
8775.14 1.9017e-13
8775.78 1.9069e-13
8776.41 1.9248e-13
8777.05 1.9066e-13
8777.68 1.8851e-13
8778.32 1.9116e-13
8778.95 1.9058e-13
8779.59 1.9e-13
8780.23 1.892e-13
8780.86 1.8931e-13
8781.5 1.8789e-13
8782.13 1.8757e-13
8782.77 1.8805e-13
8783.4 1.8797e-13
8784.04 1.8543e-13
8784.68 1.8925e-13
8785.31 1.9004e-13
8785.95 1.8698e-13
8786.58 1.8902e-13
8787.22 1.8838e-13
8787.85 1.8913e-13
8788.49 1.8875e-13
8789.12 1.8862e-13
8789.76 1.895e-13
8790.4 1.8901e-13
8791.03 1.8698e-13
8791.67 1.8689e-13
8792.3 1.8812e-13
8792.94 1.8911e-13
8793.57 1.8853e-13
8794.21 1.869e-13
8794.85 1.8689e-13
8795.48 1.8693e-13
8796.12 1.8689e-13
8796.75 1.8706e-13
8797.39 1.8699e-13
8798.02 1.8743e-13
8798.66 1.8753e-13
8799.29 1.8684e-13
8799.93 1.8821e-13
8800.57 1.8787e-13
8801.2 1.8693e-13
8801.84 1.8822e-13
8802.47 1.8875e-13
8803.11 1.8872e-13
8803.74 1.891e-13
8804.38 1.8914e-13
8805.02 1.8844e-13
8805.65 1.8707e-13
8806.29 1.882e-13
8806.92 1.9073e-13
8807.56 1.8596e-13
8808.19 1.8637e-13
8808.83 1.8752e-13
8809.46 1.8884e-13
8810.1 1.8703e-13
8810.74 1.8791e-13
8811.37 1.8682e-13
8812.01 1.8455e-13
8812.64 1.8543e-13
8813.28 1.8714e-13
8813.91 1.8579e-13
8814.55 1.8512e-13
8815.19 1.8459e-13
8815.82 1.8592e-13
8816.46 1.8785e-13
8817.09 1.8643e-13
8817.73 1.8647e-13
8818.36 1.882e-13
8819.0 1.8558e-13
8819.63 1.8595e-13
8820.27 1.8641e-13
8820.91 1.8586e-13
8821.54 1.8563e-13
8822.18 1.8602e-13
8822.81 1.876e-13
8823.45 1.8737e-13
8824.08 1.8687e-13
8824.72 1.8599e-13
8825.36 1.8448e-13
8825.99 1.8462e-13
8826.63 1.8552e-13
8827.26 1.835e-13
8827.9 1.8619e-13
8828.53 1.848e-13
8829.17 1.8477e-13
8829.8 1.8523e-13
8830.44 1.8364e-13
8831.08 1.8394e-13
8831.71 1.8443e-13
8832.35 1.8532e-13
8832.98 1.8625e-13
8833.62 1.8542e-13
8834.25 1.8701e-13
8834.89 1.8634e-13
8835.53 1.8505e-13
8836.16 1.8573e-13
8836.8 1.8528e-13
8837.43 1.8375e-13
8838.07 1.8436e-13
8838.7 1.8339e-13
8839.34 1.8374e-13
8839.97 1.8495e-13
8840.61 1.8524e-13
8841.25 1.8522e-13
8841.88 1.8495e-13
8842.52 1.8588e-13
8843.15 1.8528e-13
8843.79 1.8374e-13
8844.42 1.8465e-13
8845.06 1.8483e-13
8845.7 1.8241e-13
8846.33 1.8282e-13
8846.97 1.8527e-13
8847.6 1.8468e-13
8848.24 1.8315e-13
8848.87 1.8276e-13
8849.51 1.8311e-13
8850.14 1.8315e-13
8850.78 1.833e-13
8851.42 1.8299e-13
8852.05 1.8245e-13
8852.69 1.8173e-13
8853.32 1.8081e-13
8853.96 1.8138e-13
8854.59 1.8204e-13
8855.23 1.8088e-13
8855.87 1.7937e-13
8856.5 1.8098e-13
8857.14 1.7974e-13
8857.77 1.7858e-13
8858.41 1.789e-13
8859.04 1.7757e-13
8859.68 1.7644e-13
8860.32 1.7747e-13
8860.95 1.7873e-13
8861.59 1.7938e-13
8862.22 1.7898e-13
8862.86 1.7766e-13
8863.49 1.7771e-13
8864.13 1.7749e-13
8864.76 1.7721e-13
8865.4 1.7714e-13
8866.04 1.7616e-13
8866.67 1.7635e-13
8867.31 1.7793e-13
8867.94 1.7938e-13
8868.58 1.7593e-13
8869.21 1.7697e-13
8869.85 1.7867e-13
8870.49 1.7901e-13
8871.12 1.7737e-13
8871.76 1.7805e-13
8872.39 1.7841e-13
8873.03 1.7876e-13
8873.66 1.7971e-13
8874.3 1.8009e-13
8874.93 1.7917e-13
8875.57 1.7826e-13
8876.21 1.7856e-13
8876.84 1.7815e-13
8877.48 1.7826e-13
8878.11 1.7913e-13
8878.75 1.7937e-13
8879.38 1.7918e-13
8880.02 1.781e-13
8880.66 1.7757e-13
8881.29 1.7871e-13
8881.93 1.7783e-13
8882.56 1.7733e-13
8883.2 1.7809e-13
8883.83 1.7895e-13
8884.47 1.7885e-13
8885.1 1.7832e-13
8885.74 1.7784e-13
8886.38 1.772e-13
8887.01 1.7734e-13
8887.65 1.7614e-13
8888.28 1.7576e-13
8888.92 1.7764e-13
8889.55 1.7702e-13
8890.19 1.7629e-13
8890.83 1.7724e-13
8891.46 1.7562e-13
8892.1 1.7483e-13
8892.73 1.757e-13
8893.37 1.7547e-13
8894.0 1.7606e-13
8894.64 1.7489e-13
8895.27 1.7411e-13
8895.91 1.7581e-13
8896.55 1.7698e-13
8897.18 1.7547e-13
8897.82 1.7421e-13
8898.45 1.7597e-13
8899.09 1.7667e-13
8899.72 1.753e-13
8900.36 1.7632e-13
8901.0 1.7684e-13
8901.63 1.7572e-13
8902.27 1.774e-13
8902.9 1.7909e-13
8903.54 1.7819e-13
8904.17 1.7718e-13
8904.81 1.771e-13
8905.44 1.7875e-13
8906.08 1.8018e-13
8906.72 1.7888e-13
8907.35 1.7798e-13
8907.99 1.7686e-13
8908.62 1.7491e-13
8909.26 1.7457e-13
8909.89 1.7519e-13
8910.53 1.7441e-13
8911.17 1.7447e-13
8911.8 1.7599e-13
8912.44 1.7442e-13
8913.07 1.7218e-13
8913.71 1.7321e-13
8914.34 1.7493e-13
8914.98 1.7443e-13
8915.61 1.7616e-13
8916.25 1.7663e-13
8916.89 1.7579e-13
8917.52 1.7521e-13
8918.16 1.7744e-13
8918.79 1.7691e-13
8919.43 1.7386e-13
8920.06 1.7587e-13
8920.7 1.7613e-13
8921.34 1.7604e-13
8921.97 1.7805e-13
8922.61 1.7742e-13
8923.24 1.7735e-13
8923.88 1.7765e-13
8924.51 1.7553e-13
8925.15 1.7552e-13
8925.78 1.7633e-13
8926.42 1.7568e-13
8927.06 1.7565e-13
8927.69 1.7523e-13
8928.33 1.756e-13
8928.96 1.7569e-13
8929.6 1.737e-13
8930.23 1.7056e-13
8930.87 1.6983e-13
8931.51 1.7213e-13
8932.14 1.7355e-13
8932.78 1.741e-13
8933.41 1.7472e-13
8934.05 1.7332e-13
8934.68 1.7185e-13
8935.32 1.7406e-13
8935.95 1.753e-13
8936.59 1.7541e-13
8937.23 1.745e-13
8937.86 1.7541e-13
8938.5 1.7559e-13
8939.13 1.7366e-13
8939.77 1.7397e-13
8940.4 1.7368e-13
8941.04 1.7278e-13
8941.68 1.7355e-13
8942.31 1.7355e-13
8942.95 1.7342e-13
8943.58 1.7429e-13
8944.22 1.7533e-13
8944.85 1.7594e-13
8945.49 1.7401e-13
8946.13 1.7415e-13
8946.76 1.6944e-13
8947.4 1.7028e-13
8948.03 1.7646e-13
8948.67 1.7725e-13
8949.3 1.7564e-13
8949.94 1.767e-13
8950.57 1.7623e-13
8951.21 1.7431e-13
8951.85 1.7221e-13
8952.48 1.7828e-13
8953.12 1.7753e-13
8953.75 1.7463e-13
8954.39 1.7446e-13
8955.02 1.7907e-13
8955.66 1.8036e-13
8956.3 1.7749e-13
8956.93 1.7417e-13
8957.57 1.7223e-13
8958.2 1.7099e-13
8958.84 1.7345e-13
8959.47 1.7699e-13
8960.11 1.8026e-13
8960.74 1.7707e-13
8961.38 1.6911e-13
8962.02 1.6748e-13
8962.65 1.7568e-13
8963.29 1.8283e-13
8963.92 1.8321e-13
8964.56 1.7577e-13
8965.19 1.7077e-13
8965.83 1.7372e-13
8966.47 1.7491e-13
8967.1 1.7095e-13
8967.74 1.7258e-13
8968.37 1.7475e-13
8969.01 1.719e-13
8969.64 1.7283e-13
8970.28 1.708e-13
8970.91 1.727e-13
8971.55 1.7516e-13
8972.19 1.732e-13
8972.82 1.7437e-13
8973.46 1.742e-13
8974.09 1.7608e-13
8974.73 1.7711e-13
8975.36 1.716e-13
8976.0 1.6739e-13
8976.64 1.699e-13
8977.27 1.7485e-13
8977.91 1.745e-13
8978.54 1.7385e-13
8979.18 1.7665e-13
8979.81 1.7464e-13
8980.45 1.7224e-13
8981.08 1.7407e-13
8981.72 1.7675e-13
8982.36 1.7327e-13
8982.99 1.7165e-13
8983.63 1.7224e-13
8984.26 1.7149e-13
8984.9 1.756e-13
8985.53 1.7881e-13
8986.17 1.7814e-13
8986.81 1.7708e-13
8987.44 1.7934e-13
8988.08 1.7956e-13
8988.71 1.783e-13
8989.35 1.807e-13
8989.98 1.8539e-13
8990.62 1.8382e-13
8991.25 1.8679e-13
8991.89 1.8435e-13
8992.53 1.7908e-13
8993.16 1.7808e-13
8993.8 1.7657e-13
8994.43 1.7424e-13
8995.07 1.7636e-13
8995.7 1.7824e-13
8996.34 1.8183e-13
8996.98 1.8084e-13
8997.61 1.7938e-13
8998.25 1.7716e-13
8998.88 1.7841e-13
8999.52 1.8148e-13
9000.15 1.8497e-13
9000.79 1.8645e-13
9001.42 1.8443e-13
9002.06 1.8806e-13
9002.7 1.8429e-13
9003.33 1.8622e-13
9003.97 1.9028e-13
9004.6 1.9441e-13
9005.24 1.9357e-13
9005.87 1.9524e-13
9006.51 1.9369e-13
9007.15 1.8925e-13
9007.78 1.8959e-13
9008.42 1.8896e-13
9009.05 1.8388e-13
9009.69 1.8206e-13
9010.32 1.823e-13
9010.96 1.8292e-13
9011.59 1.8249e-13
9012.23 1.7902e-13
9012.87 1.7986e-13
9013.5 1.7824e-13
9014.14 1.7295e-13
9014.77 1.7826e-13
9015.41 1.8403e-13
9016.04 1.8092e-13
9016.68 1.847e-13
9017.32 1.903e-13
9017.95 1.8377e-13
9018.59 1.7441e-13
9019.22 1.7446e-13
9019.86 1.7964e-13
9020.49 1.7951e-13
9021.13 1.7969e-13
9021.76 1.7894e-13
9022.4 1.7403e-13
9023.04 1.7721e-13
9023.67 1.8638e-13
9024.31 1.8158e-13
9024.94 1.7089e-13
9025.58 1.7092e-13
9026.21 1.7726e-13
9026.85 1.822e-13
9027.49 1.7909e-13
9028.12 1.7722e-13
9028.76 1.7795e-13
9029.39 1.7748e-13
9030.03 1.767e-13
9030.66 1.7423e-13
9031.3 1.7562e-13
9031.94 1.7742e-13
9032.57 1.7835e-13
9033.21 1.7718e-13
9033.84 1.7922e-13
9034.48 1.7586e-13
9035.11 1.7484e-13
9035.75 1.7915e-13
9036.38 1.8082e-13
9037.02 1.8112e-13
9037.66 1.8161e-13
9038.29 1.8472e-13
9038.93 1.8199e-13
9039.56 1.8125e-13
9040.2 1.7805e-13
9040.83 1.7742e-13
9041.47 1.7831e-13
9042.11 1.782e-13
9042.74 1.8112e-13
9043.38 1.828e-13
9044.01 1.8089e-13
9044.65 1.7782e-13
9045.28 1.7766e-13
9045.92 1.8034e-13
9046.55 1.7864e-13
9047.19 1.8124e-13
9047.83 1.7995e-13
9048.46 1.7974e-13
9049.1 1.8076e-13
9049.73 1.8395e-13
9050.37 1.8406e-13
9051.0 1.8131e-13
9051.64 1.8309e-13
9052.28 1.8381e-13
9052.91 1.8337e-13
9053.55 1.8278e-13
9054.18 1.8028e-13
9054.82 1.7842e-13
9055.45 1.7926e-13
9056.09 1.8139e-13
9056.72 1.8181e-13
9057.36 1.7989e-13
9058.0 1.8185e-13
9058.63 1.8202e-13
9059.27 1.8066e-13
9059.9 1.818e-13
9060.54 1.796e-13
9061.17 1.7865e-13
9061.81 1.7833e-13
9062.45 1.7924e-13
9063.08 1.8129e-13
9063.72 1.7707e-13
9064.35 1.7584e-13
9064.99 1.7864e-13
9065.62 1.7896e-13
9066.26 1.8103e-13
9066.89 1.8016e-13
9067.53 1.7871e-13
9068.17 1.7999e-13
9068.8 1.814e-13
9069.44 1.8467e-13
9070.07 1.8802e-13
9070.71 1.8261e-13
9071.34 1.7981e-13
9071.98 1.8119e-13
9072.62 1.873e-13
9073.25 1.8341e-13
9073.89 1.8048e-13
9074.52 1.7649e-13
9075.16 1.7674e-13
9075.79 1.7857e-13
9076.43 1.8085e-13
9077.06 1.8226e-13
9077.7 1.7764e-13
9078.34 1.7903e-13
9078.97 1.8166e-13
9079.61 1.8315e-13
9080.24 1.8358e-13
9080.88 1.8009e-13
9081.51 1.8069e-13
9082.15 1.819e-13
9082.79 1.826e-13
9083.42 1.8285e-13
9084.06 1.8458e-13
9084.69 1.8665e-13
9085.33 1.8549e-13
9085.96 1.8381e-13
9086.6 1.8773e-13
9087.23 1.9076e-13
9087.87 1.8567e-13
9088.51 1.8469e-13
9089.14 1.8603e-13
9089.78 1.8236e-13
9090.41 1.8029e-13
9091.05 1.7472e-13
9091.68 1.7863e-13
9092.32 1.8495e-13
9092.96 1.8363e-13
9093.59 1.8347e-13
9094.23 1.8202e-13
9094.86 1.7687e-13
9095.5 1.7889e-13
9096.13 1.7844e-13
9096.77 1.7836e-13
9097.4 1.8635e-13
9098.04 1.898e-13
9098.68 1.879e-13
9099.31 1.8367e-13
9099.95 1.8087e-13
9100.58 1.8108e-13
9101.22 1.8102e-13
9101.85 1.784e-13
9102.49 1.7811e-13
9103.13 1.8158e-13
9103.76 1.8447e-13
9104.4 1.8666e-13
9105.03 1.8767e-13
9105.67 1.8682e-13
9106.3 1.8473e-13
9106.94 1.8548e-13
9107.57 1.8462e-13
9108.21 1.8308e-13
9108.85 1.8474e-13
9109.48 1.846e-13
9110.12 1.8268e-13
9110.75 1.803e-13
9111.39 1.808e-13
9112.02 1.8164e-13
9112.66 1.8242e-13
9113.3 1.8628e-13
9113.93 1.8478e-13
9114.57 1.8405e-13
9115.2 1.8424e-13
9115.84 1.8235e-13
9116.47 1.8281e-13
9117.11 1.8438e-13
9117.74 1.8306e-13
9118.38 1.8793e-13
9119.02 1.8799e-13
9119.65 1.8284e-13
9120.29 1.8297e-13
9120.92 1.7917e-13
9121.56 1.7992e-13
9122.19 1.8061e-13
9122.83 1.8538e-13
9123.47 1.8452e-13
9124.1 1.8579e-13
9124.74 1.7954e-13
9125.37 1.7921e-13
9126.01 1.8124e-13
9126.64 1.8391e-13
9127.28 1.8184e-13
9127.92 1.8327e-13
9128.55 1.8723e-13
9129.19 1.9035e-13
9129.82 1.8521e-13
9130.46 1.8418e-13
9131.09 1.8567e-13
9131.73 1.8637e-13
9132.36 1.8369e-13
9133.0 1.8503e-13
9133.64 1.9345e-13
9134.27 1.9675e-13
9134.91 1.9144e-13
9135.54 1.8867e-13
9136.18 1.8788e-13
9136.81 1.8365e-13
9137.45 1.8177e-13
9138.09 1.8117e-13
9138.72 1.8271e-13
9139.36 1.8601e-13
9139.99 1.8782e-13
9140.63 1.8075e-13
9141.26 1.7852e-13
9141.9 1.8421e-13
9142.53 1.8439e-13
9143.17 1.8168e-13
9143.81 1.7979e-13
9144.44 1.8098e-13
9145.08 1.8236e-13
9145.71 1.7899e-13
9146.35 1.8085e-13
9146.98 1.8501e-13
9147.62 1.8187e-13
9148.26 1.8083e-13
9148.89 1.8354e-13
9149.53 1.8227e-13
9150.16 1.8087e-13
9150.8 1.851e-13
9151.43 1.8863e-13
9152.07 1.8917e-13
9152.7 1.8895e-13
9153.34 1.8841e-13
9153.98 1.9117e-13
9154.61 1.9332e-13
9155.25 1.8766e-13
9155.88 1.8717e-13
9156.52 1.8708e-13
9157.15 1.9062e-13
9157.79 1.8759e-13
9158.43 1.813e-13
9159.06 1.821e-13
9159.7 1.8296e-13
9160.33 1.8278e-13
9160.97 1.8037e-13
9161.6 1.7901e-13
9162.24 1.8403e-13
9162.87 1.8637e-13
9163.51 1.8427e-13
9164.15 1.8382e-13
9164.78 1.8052e-13
9165.42 1.8291e-13
9166.05 1.8735e-13
9166.69 1.8379e-13
9167.32 1.8137e-13
9167.96 1.7892e-13
9168.6 1.8181e-13
9169.23 1.832e-13
9169.87 1.8264e-13
9170.5 1.8369e-13
9171.14 1.8406e-13
9171.77 1.8659e-13
9172.41 1.8504e-13
9173.04 1.8432e-13
9173.68 1.8522e-13
9174.32 1.8859e-13
9174.95 1.8891e-13
9175.59 1.8596e-13
9176.22 1.8181e-13
9176.86 1.8154e-13
9177.49 1.8194e-13
9178.13 1.8167e-13
9178.77 1.8359e-13
9179.4 1.8673e-13
9180.04 1.8775e-13
9180.67 1.8384e-13
9181.31 1.8545e-13
9181.94 1.8744e-13
9182.58 1.839e-13
9183.21 1.8287e-13
9183.85 1.8539e-13
9184.49 1.8717e-13
9185.12 1.8776e-13
9185.76 1.8642e-13
9186.39 1.8702e-13
9187.03 1.879e-13
9187.66 1.8514e-13
9188.3 1.8238e-13
9188.94 1.8197e-13
9189.57 1.8302e-13
9190.21 1.8401e-13
9190.84 1.8303e-13
9191.48 1.8346e-13
9192.11 1.8693e-13
9192.75 1.8753e-13
9193.38 1.8679e-13
9194.02 1.8789e-13
9194.66 1.8872e-13
9195.29 1.8302e-13
9195.93 1.7922e-13
9196.56 1.8368e-13
9197.2 1.8275e-13
9197.83 1.8485e-13
9198.47 1.8434e-13
9199.11 1.8066e-13
9199.74 1.8131e-13
9200.38 1.7994e-13
9201.01 1.8597e-13
9201.65 1.9122e-13
9202.28 1.8709e-13
9202.92 1.8249e-13
9203.55 1.7914e-13
9204.19 1.8088e-13
9204.83 1.8361e-13
9205.46 1.8486e-13
9206.1 1.8547e-13
9206.73 1.8185e-13
9207.37 1.7737e-13
9208.0 1.843e-13
9208.64 1.8407e-13
9209.28 1.8245e-13
9209.91 1.8254e-13
9210.55 1.8199e-13
9211.18 1.8193e-13
9211.82 1.8218e-13
9212.45 1.835e-13
9213.09 1.8498e-13
9213.73 1.8833e-13
9214.36 1.9292e-13
9215.0 1.9284e-13
9215.63 1.911e-13
9216.27 1.9166e-13
9216.9 1.8921e-13
9217.54 1.9233e-13
9218.17 2.0136e-13
9218.81 2.0278e-13
9219.45 2.0267e-13
9220.08 2.0466e-13
9220.72 1.9684e-13
9221.35 1.9847e-13
9221.99 1.9847e-13
9222.62 1.9039e-13
9223.26 1.8815e-13
9223.9 1.9072e-13
9224.53 1.8802e-13
9225.17 1.8619e-13
9225.8 1.878e-13
9226.44 1.8702e-13
9227.07 1.8479e-13
9227.71 1.8495e-13
9228.34 1.8756e-13
9228.98 1.881e-13
9229.62 1.8509e-13
9230.25 1.8634e-13
9230.89 1.8594e-13
9231.52 1.8178e-13
9232.16 1.815e-13
9232.79 1.8322e-13
9233.43 1.8546e-13
9234.07 1.8585e-13
9234.7 1.8375e-13
9235.34 1.8137e-13
9235.97 1.8065e-13
9236.61 1.8026e-13
9237.24 1.7899e-13
9237.88 1.7893e-13
9238.51 1.806e-13
9239.15 1.8213e-13
9239.79 1.825e-13
9240.42 1.8307e-13
9241.06 1.8479e-13
9241.69 1.7996e-13
9242.33 1.8004e-13
9242.96 1.8376e-13
9243.6 1.814e-13
9244.24 1.833e-13
9244.87 1.8473e-13
9245.51 1.8175e-13
9246.14 1.7831e-13
9246.78 1.8133e-13
9247.41 1.8622e-13
9248.05 1.868e-13
9248.68 1.8557e-13
9249.32 1.8305e-13
9249.96 1.824e-13
9250.59 1.8301e-13
9251.23 1.8074e-13
9251.86 1.8063e-13
9252.5 1.7877e-13
9253.13 1.7529e-13
9253.77 1.794e-13
9254.41 1.8046e-13
9255.04 1.7547e-13
9255.68 1.7639e-13
9256.31 1.8003e-13
9256.95 1.8064e-13
9257.58 1.8149e-13
9258.22 1.8376e-13
9258.85 1.8154e-13
9259.49 1.7986e-13
9260.13 1.7899e-13
9260.76 1.8015e-13
9261.4 1.785e-13
9262.03 1.7959e-13
9262.67 1.8214e-13
9263.3 1.7998e-13
9263.94 1.811e-13
9264.58 1.7997e-13
9265.21 1.7807e-13
9265.85 1.8166e-13
9266.48 1.8259e-13
9267.12 1.7933e-13
9267.75 1.78e-13
9268.39 1.7689e-13
9269.02 1.7418e-13
9269.66 1.7565e-13
9270.3 1.7848e-13
9270.93 1.7844e-13
9271.57 1.8029e-13
9272.2 1.8605e-13
9272.84 1.8316e-13
9273.47 1.7805e-13
9274.11 1.7543e-13
9274.75 1.7408e-13
9275.38 1.7933e-13
9276.02 1.8022e-13
9276.65 1.7563e-13
9277.29 1.7533e-13
9277.92 1.7667e-13
9278.56 1.7645e-13
9279.19 1.768e-13
9279.83 1.8011e-13
9280.47 1.7991e-13
9281.1 1.7309e-13
9281.74 1.7645e-13
9282.37 1.7766e-13
9283.01 1.7582e-13
9283.64 1.7817e-13
9284.28 1.796e-13
9284.92 1.7782e-13
9285.55 1.7958e-13
9286.19 1.7774e-13
9286.82 1.7648e-13
9287.46 1.7428e-13
9288.09 1.7197e-13
9288.73 1.749e-13
9289.36 1.7308e-13
9290.0 1.7672e-13
9290.64 1.7582e-13
9291.27 1.7527e-13
9291.91 1.7397e-13
9292.54 1.7681e-13
9293.18 1.7874e-13
9293.81 1.7657e-13
9294.45 1.7516e-13
9295.09 1.7841e-13
9295.72 1.7698e-13
9296.36 1.6975e-13
9296.99 1.7588e-13
9297.63 1.831e-13
9298.26 1.8311e-13
9298.9 1.781e-13
9299.54 1.7978e-13
9300.17 1.8297e-13
9300.81 1.8044e-13
9301.44 1.7694e-13
9302.08 1.7397e-13
9302.71 1.7364e-13
9303.35 1.7593e-13
9303.98 1.7397e-13
9304.62 1.6983e-13
9305.26 1.7363e-13
9305.89 1.7735e-13
9306.53 1.8173e-13
9307.16 1.8177e-13
9307.8 1.8137e-13
9308.43 1.8653e-13
9309.07 1.8192e-13
9309.71 1.7542e-13
9310.34 1.7375e-13
9310.98 1.7678e-13
9311.61 1.7861e-13
9312.25 1.7908e-13
9312.88 1.8006e-13
9313.52 1.8303e-13
9314.15 1.8442e-13
9314.79 1.8019e-13
9315.43 1.7941e-13
9316.06 1.8443e-13
9316.7 1.8339e-13
9317.33 1.8188e-13
9317.97 1.7873e-13
9318.6 1.7123e-13
9319.24 1.7131e-13
9319.88 1.7724e-13
9320.51 1.8133e-13
9321.15 1.7982e-13
9321.78 1.7952e-13
9322.42 1.8041e-13
9323.05 1.8555e-13
9323.69 1.9214e-13
9324.32 1.8861e-13
9324.96 1.8869e-13
9325.6 1.8983e-13
9326.23 1.8337e-13
9326.87 1.6737e-13
9327.5 1.6752e-13
9328.14 1.7533e-13
9328.77 1.741e-13
9329.41 1.7223e-13
9330.05 1.6989e-13
9330.68 1.6882e-13
9331.32 1.7639e-13
9331.95 1.7787e-13
9332.59 1.7484e-13
9333.22 1.7565e-13
9333.86 1.7733e-13
9334.49 1.7768e-13
9335.13 1.747e-13
9335.77 1.7906e-13
9336.4 1.8346e-13
9337.04 1.7782e-13
9337.67 1.7512e-13
9338.31 1.6696e-13
9338.94 1.7108e-13
9339.58 1.7998e-13
9340.22 1.7795e-13
9340.85 1.7702e-13
9341.49 1.8e-13
9342.12 1.8477e-13
9342.76 1.9692e-13
9343.39 1.9686e-13
9344.03 1.9902e-13
9344.66 1.9284e-13
9345.3 1.81e-13
9345.94 1.7479e-13
9346.57 1.6945e-13
9347.21 1.6737e-13
9347.84 1.6908e-13
9348.48 1.7109e-13
9349.11 1.7018e-13
9349.75 1.7076e-13
9350.39 1.637e-13
9351.02 1.6692e-13
9351.66 1.739e-13
9352.29 1.7295e-13
9352.93 1.8035e-13
9353.56 1.8252e-13
9354.2 1.8441e-13
9354.83 1.8633e-13
9355.47 1.8033e-13
9356.11 1.8048e-13
9356.74 1.8201e-13
9357.38 1.8131e-13
9358.01 1.8036e-13
9358.65 1.8214e-13
9359.28 1.7922e-13
9359.92 1.6727e-13
9360.56 1.6308e-13
9361.19 1.6755e-13
9361.83 1.7144e-13
9362.46 1.7111e-13
9363.1 1.6834e-13
9363.73 1.7113e-13
9364.37 1.7435e-13
9365.0 1.7466e-13
9365.64 1.7643e-13
9366.28 1.7592e-13
9366.91 1.7201e-13
9367.55 1.7083e-13
9368.18 1.7618e-13
9368.82 1.7694e-13
9369.45 1.7796e-13
9370.09 1.7668e-13
9370.73 1.7637e-13
9371.36 1.766e-13
9372.0 1.7316e-13
9372.63 1.7607e-13
9373.27 1.7826e-13
9373.9 1.7844e-13
9374.54 1.7751e-13
9375.17 1.7781e-13
9375.81 1.8009e-13
9376.45 1.8038e-13
9377.08 1.8106e-13
9377.72 1.854e-13
9378.35 1.8536e-13
9378.99 1.7918e-13
9379.62 1.6956e-13
9380.26 1.7252e-13
9380.9 1.7708e-13
9381.53 1.7828e-13
9382.17 1.7708e-13
9382.8 1.7152e-13
9383.44 1.6744e-13
9384.07 1.7059e-13
9384.71 1.7037e-13
9385.35 1.7025e-13
9385.98 1.7378e-13
9386.62 1.7604e-13
9387.25 1.7631e-13
9387.89 1.7431e-13
9388.52 1.6941e-13
9389.16 1.6759e-13
9389.79 1.6668e-13
9390.43 1.6428e-13
9391.07 1.6786e-13
9391.7 1.7144e-13
9392.34 1.6659e-13
9392.97 1.6663e-13
9393.61 1.6657e-13
9394.24 1.6971e-13
9394.88 1.76e-13
9395.52 1.7356e-13
9396.15 1.7368e-13
9396.79 1.7538e-13
9397.42 1.7086e-13
9398.06 1.6914e-13
9398.69 1.7207e-13
9399.33 1.7439e-13
9399.96 1.7277e-13
9400.6 1.6554e-13
9401.24 1.6344e-13
9401.87 1.7078e-13
9402.51 1.7242e-13
9403.14 1.7027e-13
9403.78 1.6999e-13
9404.41 1.7068e-13
9405.05 1.7463e-13
9405.69 1.7125e-13
9406.32 1.6836e-13
9406.96 1.7159e-13
9407.59 1.6978e-13
9408.23 1.6999e-13
9408.86 1.6824e-13
9409.5 1.6688e-13
9410.13 1.6949e-13
9410.77 1.6746e-13
9411.41 1.6719e-13
9412.04 1.6827e-13
9412.68 1.6745e-13
9413.31 1.6245e-13
9413.95 1.6536e-13
9414.58 1.7057e-13
9415.22 1.6764e-13
9415.86 1.7241e-13
9416.49 1.712e-13
9417.13 1.6683e-13
9417.76 1.7452e-13
9418.4 1.7375e-13
9419.03 1.7175e-13
9419.67 1.6793e-13
9420.3 1.6947e-13
9420.94 1.6749e-13
9421.58 1.672e-13
9422.21 1.6957e-13
9422.85 1.6599e-13
9423.48 1.649e-13
9424.12 1.6939e-13
9424.75 1.7429e-13
9425.39 1.7661e-13
9426.03 1.7717e-13
9426.66 1.7501e-13
9427.3 1.8082e-13
9427.93 1.8479e-13
9428.57 1.8669e-13
9429.2 1.7884e-13
9429.84 1.6993e-13
9430.47 1.657e-13
9431.11 1.6203e-13
9431.75 1.6647e-13
9432.38 1.619e-13
9433.02 1.5874e-13
9433.65 1.6452e-13
9434.29 1.6721e-13
9434.92 1.6793e-13
9435.56 1.6717e-13
9436.2 1.6888e-13
9436.83 1.6966e-13
9437.47 1.7851e-13
9438.1 1.8645e-13
9438.74 1.9139e-13
9439.37 1.8665e-13
9440.01 1.8257e-13
9440.64 1.8093e-13
9441.28 1.8581e-13
9441.92 1.8384e-13
9442.55 1.7865e-13
9443.19 1.7081e-13
9443.82 1.6728e-13
9444.46 1.6714e-13
9445.09 1.6285e-13
9445.73 1.609e-13
9446.37 1.6609e-13
9447.0 1.7004e-13
9447.64 1.6759e-13
9448.27 1.6924e-13
9448.91 1.6926e-13
9449.54 1.6511e-13
9450.18 1.6914e-13
9450.81 1.7358e-13
9451.45 1.6628e-13
9452.09 1.6536e-13
9452.72 1.7347e-13
9453.36 1.7304e-13
9453.99 1.7218e-13
9454.63 1.7269e-13
9455.26 1.7638e-13
9455.9 1.7914e-13
9456.54 1.7332e-13
9457.17 1.6965e-13
9457.81 1.7415e-13
9458.44 1.8094e-13
9459.08 1.749e-13
9459.71 1.7077e-13
9460.35 1.7592e-13
9460.98 1.7991e-13
9461.62 1.7783e-13
9462.26 1.7215e-13
9462.89 1.6803e-13
9463.53 1.7017e-13
9464.16 1.6952e-13
9464.8 1.6912e-13
9465.43 1.7077e-13
9466.07 1.707e-13
9466.71 1.676e-13
9467.34 1.6642e-13
9467.98 1.6875e-13
9468.61 1.7093e-13
9469.25 1.7357e-13
9469.88 1.7429e-13
9470.52 1.6995e-13
9471.15 1.6602e-13
9471.79 1.6459e-13
9472.43 1.6797e-13
9473.06 1.7337e-13
9473.7 1.7113e-13
9474.33 1.7209e-13
9474.97 1.7467e-13
9475.6 1.7833e-13
9476.24 1.7449e-13
9476.88 1.7175e-13
9477.51 1.7781e-13
9478.15 1.8236e-13
9478.78 1.8087e-13
9479.42 1.7798e-13
9480.05 1.7884e-13
9480.69 1.8096e-13
9481.33 1.8076e-13
9481.96 1.7983e-13
9482.6 1.7926e-13
9483.23 1.7334e-13
9483.87 1.6665e-13
9484.5 1.6581e-13
9485.14 1.6515e-13
9485.77 1.6878e-13
9486.41 1.7184e-13
9487.05 1.7037e-13
9487.68 1.682e-13
9488.32 1.6383e-13
9488.95 1.6281e-13
9489.59 1.7117e-13
9490.22 1.7297e-13
9490.86 1.6813e-13
9491.5 1.6985e-13
9492.13 1.7298e-13
9492.77 1.7122e-13
9493.4 1.7279e-13
9494.04 1.7992e-13
9494.67 1.7857e-13
9495.31 1.7664e-13
9495.94 1.7465e-13
9496.58 1.7272e-13
9497.22 1.7397e-13
9497.85 1.7803e-13
9498.49 1.7772e-13
9499.12 1.7161e-13
9499.76 1.7777e-13
9500.39 1.8077e-13
9501.03 1.7914e-13
9501.67 1.8002e-13
9502.3 1.8239e-13
9502.94 1.7839e-13
9503.57 1.7044e-13
9504.21 1.6574e-13
9504.84 1.6953e-13
9505.48 1.7119e-13
9506.11 1.6715e-13
9506.75 1.7202e-13
9507.39 1.6981e-13
9508.02 1.6973e-13
9508.66 1.6728e-13
9509.29 1.6827e-13
9509.93 1.6511e-13
9510.56 1.6579e-13
9511.2 1.6971e-13
9511.84 1.6897e-13
9512.47 1.7405e-13
9513.11 1.74e-13
9513.74 1.7438e-13
9514.38 1.7737e-13
9515.01 1.8013e-13
9515.65 1.7715e-13
9516.28 1.7735e-13
9516.92 1.8576e-13
9517.56 1.8593e-13
9518.19 1.7932e-13
9518.83 1.7984e-13
9519.46 1.8321e-13
9520.1 1.8135e-13
9520.73 1.8105e-13
9521.37 1.84e-13
9522.01 1.806e-13
9522.64 1.7585e-13
9523.28 1.7809e-13
9523.91 1.745e-13
9524.55 1.7133e-13
9525.18 1.7944e-13
9525.82 1.8495e-13
9526.45 1.795e-13
9527.09 1.7296e-13
9527.73 1.731e-13
9528.36 1.7799e-13
9529.0 1.8267e-13
9529.63 1.8105e-13
9530.27 1.7514e-13
9530.9 1.7434e-13
9531.54 1.8046e-13
9532.18 1.8437e-13
9532.81 1.8143e-13
9533.45 1.8063e-13
9534.08 1.8923e-13
9534.72 1.9777e-13
9535.35 1.9733e-13
9535.99 1.9204e-13
9536.62 1.9724e-13
9537.26 2.0006e-13
9537.9 1.8697e-13
9538.53 1.8266e-13
9539.17 1.8192e-13
9539.8 1.8198e-13
9540.44 1.8195e-13
9541.07 1.8465e-13
9541.71 1.8219e-13
9542.35 1.7816e-13
9542.98 1.7997e-13
9543.62 1.7902e-13
9544.25 1.8339e-13
9544.89 1.8581e-13
9545.52 1.8007e-13
9546.16 1.7365e-13
9546.79 1.7024e-13
9547.43 1.7691e-13
9548.07 1.7763e-13
9548.7 1.7641e-13
9549.34 1.7776e-13
9549.97 1.7022e-13
9550.61 1.7779e-13
9551.24 1.8213e-13
9551.88 1.8063e-13
9552.52 1.7968e-13
9553.15 1.7919e-13
9553.79 1.842e-13
9554.42 1.9005e-13
9555.06 1.8333e-13
9555.69 1.7808e-13
9556.33 1.7195e-13
9556.96 1.7666e-13
9557.6 1.8109e-13
9558.24 1.7835e-13
9558.87 1.7795e-13
9559.51 1.7534e-13
9560.14 1.7408e-13
9560.78 1.8134e-13
9561.41 1.814e-13
9562.05 1.7599e-13
9562.69 1.7952e-13
9563.32 1.8449e-13
9563.96 1.8218e-13
9564.59 1.8209e-13
9565.23 1.8421e-13
9565.86 1.898e-13
9566.5 1.8972e-13
9567.14 1.8471e-13
9567.77 1.8704e-13
9568.41 1.8606e-13
9569.04 1.8116e-13
9569.68 1.7661e-13
9570.31 1.7686e-13
9570.95 1.7831e-13
9571.58 1.8069e-13
9572.22 1.7661e-13
9572.86 1.6995e-13
9573.49 1.7224e-13
9574.13 1.726e-13
9574.76 1.7056e-13
9575.4 1.721e-13
9576.03 1.7598e-13
9576.67 1.7767e-13
9577.31 1.731e-13
9577.94 1.7344e-13
9578.58 1.7793e-13
9579.21 1.7686e-13
9579.85 1.7885e-13
9580.48 1.8274e-13
9581.12 1.7994e-13
9581.75 1.7609e-13
9582.39 1.734e-13
9583.03 1.7467e-13
9583.66 1.7969e-13
9584.3 1.7888e-13
9584.93 1.7296e-13
9585.57 1.6994e-13
9586.2 1.7598e-13
9586.84 1.7309e-13
9587.48 1.7337e-13
9588.11 1.8269e-13
9588.75 1.8359e-13
9589.38 1.83e-13
9590.02 1.8066e-13
9590.65 1.7473e-13
9591.29 1.7605e-13
9591.92 1.8294e-13
9592.56 1.8509e-13
9593.2 1.7834e-13
9593.83 1.7163e-13
9594.47 1.7125e-13
9595.1 1.7844e-13
9595.74 1.7803e-13
9596.37 1.7301e-13
9597.01 1.7421e-13
9597.65 1.7454e-13
9598.28 1.7909e-13
9598.92 1.7612e-13
9599.55 1.7477e-13
9600.19 1.7419e-13
9600.82 1.7157e-13
9601.46 1.7083e-13
9602.09 1.7126e-13
9602.73 1.763e-13
9603.37 1.7484e-13
9604.0 1.731e-13
9604.64 1.7808e-13
9605.27 1.7776e-13
9605.91 1.7977e-13
9606.54 1.8012e-13
9607.18 1.7476e-13
9607.82 1.7103e-13
9608.45 1.7643e-13
9609.09 1.7886e-13
9609.72 1.7762e-13
9610.36 1.7274e-13
9610.99 1.707e-13
9611.63 1.7455e-13
9612.26 1.735e-13
9612.9 1.7333e-13
9613.54 1.7346e-13
9614.17 1.6977e-13
9614.81 1.6794e-13
9615.44 1.6911e-13
9616.08 1.6999e-13
9616.71 1.7156e-13
9617.35 1.7303e-13
9617.99 1.7369e-13
9618.62 1.7442e-13
9619.26 1.706e-13
9619.89 1.6765e-13
9620.53 1.689e-13
9621.16 1.6617e-13
9621.8 1.6542e-13
9622.43 1.6978e-13
9623.07 1.7338e-13
9623.71 1.7483e-13
9624.34 1.7593e-13
9624.98 1.7694e-13
