# wavelength flux
3186.44479 1.15413e-17
3189.38124 8.73706e-18
3192.31768 2.84170e-18
3195.26415 8.75542e-18
3198.20060 1.34263e-17
3201.13704 1.30703e-17
3204.08351 1.29644e-17
3207.01996 1.56899e-17
3209.96642 1.56635e-17
3212.90287 1.99650e-17
3215.83932 2.15518e-17
3218.78578 1.82428e-17
3221.72223 1.44886e-17
3224.65868 1.35759e-17
3227.60514 1.10254e-17
3230.54159 1.21769e-17
3233.47804 1.64766e-17
3236.42450 1.94507e-17
3239.36095 1.75033e-17
3242.29740 1.55311e-17
3245.24386 1.85339e-17
3248.18031 1.90029e-17
3251.11676 1.78529e-17
3254.06322 1.99470e-17
3256.99967 2.23085e-17
3259.93612 2.03718e-17
3262.88258 2.13772e-17
3265.81903 2.23840e-17
3268.75548 1.91147e-17
3271.70194 1.70386e-17
3274.63839 1.52347e-17
3277.57484 1.54261e-17
3280.52130 1.47825e-17
3283.45775 1.70286e-17
3286.39420 1.65677e-17
3289.34066 1.41038e-17
3292.27711 1.65003e-17
3295.21356 1.82913e-17
3298.16002 1.67081e-17
3301.09647 1.70212e-17
3304.03292 1.74105e-17
3306.97938 1.78352e-17
3309.91583 1.85344e-17
3312.85228 1.70120e-17
3315.79874 1.29496e-17
3318.73519 1.10937e-17
3321.67164 1.17672e-17
3324.61810 1.40951e-17
3327.55455 1.52950e-17
3330.49100 1.63821e-17
3333.43746 1.45089e-17
3336.37391 1.30033e-17
3339.31036 1.42922e-17
3342.25682 1.43589e-17
3345.19327 1.26280e-17
3348.12972 1.36190e-17
3351.07618 1.50587e-17
3354.01263 1.47737e-17
3356.94908 1.64028e-17
3359.89554 1.70727e-17
3362.83199 1.75117e-17
3365.76844 1.71171e-17
3368.71490 1.57789e-17
3371.65135 1.69166e-17
3374.58780 1.77423e-17
3377.53426 1.95107e-17
3380.47071 1.81808e-17
3383.40716 1.72802e-17
3386.35362 1.87177e-17
3389.29007 1.70021e-17
3392.22652 1.58757e-17
3395.17298 1.75235e-17
3398.10943 1.80704e-17
3401.05590 1.72291e-17
3403.99234 1.69607e-17
3406.92879 1.68281e-17
3409.87526 1.72566e-17
3412.81170 1.88026e-17
3415.74815 1.99232e-17
3418.69462 1.83271e-17
3421.63106 1.79352e-17
3424.56751 1.97437e-17
3427.51398 1.87216e-17
3430.45042 1.88129e-17
3433.38687 1.94472e-17
3436.33334 1.99262e-17
3439.26978 1.98648e-17
3442.20623 1.92763e-17
3445.15270 1.94308e-17
3448.08914 2.03612e-17
3451.02559 2.09601e-17
3453.97206 2.06047e-17
3456.90850 2.00899e-17
3459.84495 1.94271e-17
3462.79142 2.02018e-17
3465.72786 2.12491e-17
3468.66431 2.08263e-17
3471.61078 1.97333e-17
3474.54722 1.96997e-17
3477.48367 2.02650e-17
3480.43014 1.99589e-17
3483.36658 1.96369e-17
3486.30303 1.92889e-17
3489.24950 1.90475e-17
3492.18594 1.85960e-17
3495.12239 1.85996e-17
3498.06886 1.95409e-17
3501.00530 1.93015e-17
3503.94175 1.78739e-17
3506.88822 1.72975e-17
3509.82466 1.83760e-17
3512.76111 1.86880e-17
3515.70758 1.79991e-17
3518.64402 1.85252e-17
3521.58047 1.88185e-17
3524.52694 1.77907e-17
3527.46338 1.70352e-17
3530.39983 1.81280e-17
3533.34630 1.97315e-17
3536.28274 1.96510e-17
3539.21919 1.77703e-17
3542.16566 1.65034e-17
3545.10210 1.76020e-17
3548.03855 1.83061e-17
3550.98502 1.76919e-17
3553.92146 1.72505e-17
3556.85791 1.74396e-17
3559.80438 1.84624e-17
3562.74082 1.85429e-17
3565.67727 1.76441e-17
3568.62374 1.78194e-17
3571.56018 1.70804e-17
3574.49663 1.70209e-17
3577.44310 1.73964e-17
3580.37954 1.75547e-17
3583.31599 1.76557e-17
3586.26246 1.69697e-17
3589.19890 1.75236e-17
3592.13535 1.79252e-17
3595.08182 1.82566e-17
3598.01826 1.67898e-17
3600.96473 1.56594e-17
3603.90118 1.69323e-17
3606.83762 1.74970e-17
3609.78409 1.80201e-17
3612.72054 1.78286e-17
3615.65698 1.68159e-17
3618.60345 1.62611e-17
3621.53990 1.64360e-17
3624.47634 1.69721e-17
3627.42281 1.72329e-17
3630.35926 1.75246e-17
3633.29570 1.84058e-17
3636.24217 1.87670e-17
3639.17862 1.78349e-17
3642.11506 1.76983e-17
3645.06153 1.81277e-17
3647.99798 1.83431e-17
3650.93442 1.85222e-17
3653.88089 1.81548e-17
3656.81734 1.87253e-17
3659.75378 1.96280e-17
3662.70025 1.97656e-17
3665.63670 1.88662e-17
3668.57314 1.90586e-17
3671.51961 1.94133e-17
3674.45606 1.89668e-17
3677.39250 1.90479e-17
3680.33897 1.93770e-17
3683.27542 1.92740e-17
3686.21186 1.93484e-17
3689.15833 1.90931e-17
3692.09478 1.88522e-17
3695.03122 1.99567e-17
3697.97769 1.97688e-17
3700.91414 1.90334e-17
3703.85058 1.94630e-17
3706.79705 1.87401e-17
3709.73350 1.84560e-17
3712.66994 1.95518e-17
3715.61641 1.97475e-17
3718.55286 1.95561e-17
3721.48930 1.93862e-17
3724.43577 1.92163e-17
3727.37222 1.90465e-17
3730.30866 1.88767e-17
3733.25513 1.87070e-17
3736.19158 1.85373e-17
3739.12802 1.83676e-17
3742.07449 1.81980e-17
3745.01094 1.80284e-17
3747.94738 1.78588e-17
3750.89385 1.76893e-17
3753.83030 1.75198e-17
3756.76674 1.73504e-17
3759.71321 1.66589e-17
3762.64966 1.64651e-17
3765.58610 1.68222e-17
3768.53257 1.58502e-17
3771.46902 1.57100e-17
3774.40546 1.66590e-17
3777.35193 1.64694e-17
3780.28838 1.53157e-17
3783.22482 1.54826e-17
3786.17129 1.64859e-17
3789.10774 1.60561e-17
3792.04418 1.52429e-17
3794.99065 1.49225e-17
3797.92710 1.46438e-17
3800.87357 1.47130e-17
3803.81001 1.52855e-17
3806.74646 1.52613e-17
3809.69293 1.43270e-17
3812.62937 1.36624e-17
3815.56582 1.38485e-17
3818.51229 1.39156e-17
3821.44873 1.38959e-17
3824.38518 1.37735e-17
3827.33165 1.35362e-17
3830.26809 1.35543e-17
3833.20454 1.37483e-17
3836.15101 1.42487e-17
3839.08745 1.43383e-17
3842.02390 1.42668e-17
3844.97037 1.45479e-17
3847.90681 1.49806e-17
3850.84326 1.48604e-17
3853.78973 1.46588e-17
3856.72617 1.47813e-17
3859.66262 1.50793e-17
3862.60909 1.51537e-17
3865.54553 1.52080e-17
3868.48198 1.54092e-17
3871.42845 1.59079e-17
3874.36489 1.63014e-17
3877.30134 1.68497e-17
3880.24781 1.75493e-17
3883.18425 1.76880e-17
3886.12070 1.72019e-17
3889.06717 1.70878e-17
3892.00361 1.75360e-17
3894.94006 1.78567e-17
3897.88653 1.82276e-17
3900.82297 1.87493e-17
3903.75942 1.85452e-17
3906.70589 1.83699e-17
3909.64233 1.89900e-17
3912.57878 1.93451e-17
3915.52525 1.96415e-17
3918.46169 1.94107e-17
3921.39814 1.90555e-17
3924.34461 1.93065e-17
3927.28105 1.99638e-17
3930.21750 2.04563e-17
3933.16397 2.03831e-17
3936.10041 2.01697e-17
3939.03686 2.01237e-17
3941.98333 2.02576e-17
3944.91977 2.06912e-17
3947.85622 2.05804e-17
3950.80269 2.06718e-17
3953.73913 2.06379e-17
3956.67558 2.06816e-17
3959.62205 2.10101e-17
3962.55849 2.10361e-17
3965.49494 2.09716e-17
3968.44141 2.14187e-17
3971.37785 2.15081e-17
3974.31430 2.17497e-17
3977.26077 2.25711e-17
3980.19721 2.23598e-17
3983.13366 2.15452e-17
3986.08013 2.14093e-17
3989.01657 2.11781e-17
3991.95302 2.06861e-17
3994.89949 2.05935e-17
3997.83593 2.09984e-17
4000.77238 2.11754e-17
4003.71885 2.14763e-17
4006.65529 2.13325e-17
4009.60176 2.09661e-17
4012.53821 2.13484e-17
4015.47465 2.15831e-17
4018.41110 2.05627e-17
4021.35757 1.99045e-17
4024.29401 2.00411e-17
4027.24048 2.03486e-17
4030.17693 1.97805e-17
4033.11337 1.95449e-17
4036.05984 1.96487e-17
4038.99629 1.91773e-17
4041.93273 1.90628e-17
4044.87920 1.94143e-17
4047.81565 1.95254e-17
4050.75209 1.92135e-17
4053.69856 1.94179e-17
4056.63501 1.99623e-17
4059.57145 1.98951e-17
4062.51792 1.96030e-17
4065.45437 2.00423e-17
4068.39081 2.02264e-17
4071.33728 1.96747e-17
4074.27373 1.97236e-17
4077.21017 1.97110e-17
4080.15664 1.94112e-17
4083.09309 1.93048e-17
4086.02953 1.91971e-17
4088.97600 1.88353e-17
4091.91245 1.88638e-17
4094.84889 1.83609e-17
4097.79536 1.81903e-17
4100.73181 1.82717e-17
4103.66825 1.82954e-17
4106.61472 1.82312e-17
4109.55117 1.78424e-17
4112.48761 1.77572e-17
4115.43408 1.80485e-17
4118.37053 1.79983e-17
4121.30697 1.77492e-17
4124.25344 1.75790e-17
4127.18989 1.74187e-17
4130.12633 1.76209e-17
4133.07280 1.76565e-17
4136.00925 1.82914e-17
4138.94569 1.85320e-17
4141.89216 1.79115e-17
4144.82861 1.77700e-17
4147.76505 1.80210e-17
4150.71152 1.79181e-17
4153.64797 1.76770e-17
4156.58441 1.78035e-17
4159.53088 1.77522e-17
4162.46733 1.74797e-17
4165.40377 1.74588e-17
4168.35024 1.73280e-17
4171.28669 1.72462e-17
4174.22313 1.76028e-17
4177.16960 1.78939e-17
4180.10605 1.81224e-17
4183.04249 1.82405e-17
4185.98896 1.78404e-17
4188.92541 1.79556e-17
4191.87187 1.78381e-17
4194.80832 1.79263e-17
4197.74477 1.82642e-17
4200.69123 1.85894e-17
4203.62768 1.90501e-17
4206.56413 1.90740e-17
4209.51059 1.87574e-17
4212.44704 1.85653e-17
4215.38349 1.86009e-17
4218.32995 1.85350e-17
4221.26640 1.81696e-17
4224.20285 1.80343e-17
4227.14931 1.78080e-17
4230.08576 1.75664e-17
4233.02221 1.76792e-17
4235.96867 1.76365e-17
4238.90512 1.73640e-17
4241.84157 1.72484e-17
4244.78803 1.69755e-17
4247.72448 1.69403e-17
4250.66093 1.71242e-17
4253.60739 1.72752e-17
4256.54384 1.71559e-17
4259.48029 1.72161e-17
4262.42675 1.72349e-17
4265.36320 1.74685e-17
4268.29965 1.74566e-17
4271.24611 1.70489e-17
4274.18256 1.69821e-17
4277.11901 1.71407e-17
4280.06547 1.72418e-17
4283.00192 1.73137e-17
4285.93837 1.73712e-17
4288.88483 1.73607e-17
4291.82128 1.74809e-17
4294.75773 1.75968e-17
4297.70419 1.76539e-17
4300.64064 1.73251e-17
4303.57709 1.68238e-17
4306.52355 1.66451e-17
4309.46000 1.69892e-17
4312.39645 1.69763e-17
4315.34291 1.67136e-17
4318.27936 1.65630e-17
4321.21581 1.62285e-17
4324.16227 1.64971e-17
4327.09872 1.63297e-17
4330.03517 1.57666e-17
4332.98163 1.58059e-17
4335.91808 1.56698e-17
4338.85453 1.52387e-17
4341.80099 1.50162e-17
4344.73744 1.49395e-17
4347.67389 1.49466e-17
4350.62035 1.50749e-17
4353.55680 1.50473e-17
4356.49325 1.50170e-17
4359.43971 1.49867e-17
4362.37616 1.49564e-17
4365.31261 1.49261e-17
4368.25907 1.48958e-17
4371.19552 1.48655e-17
4374.13197 1.48352e-17
4377.07843 1.48049e-17
4380.01488 1.47746e-17
4382.95133 1.47443e-17
4385.89779 1.47140e-17
4388.83424 1.46838e-17
4391.78071 1.46535e-17
4394.71715 1.43791e-17
4397.65360 1.44612e-17
4400.60007 1.46956e-17
4403.53651 1.48832e-17
4406.47296 1.51785e-17
4409.41943 1.54147e-17
4412.35587 1.48209e-17
4415.29232 1.44965e-17
4418.23879 1.47629e-17
4421.17523 1.49742e-17
4424.11168 1.50775e-17
4427.05815 1.51655e-17
4429.99459 1.50842e-17
4432.93104 1.55058e-17
4435.87751 1.56437e-17
4438.81395 1.54525e-17
4441.75040 1.54324e-17
4444.69687 1.52385e-17
4447.63331 1.54107e-17
4450.56976 1.57550e-17
4453.51623 1.59578e-17
4456.45267 1.62386e-17
4459.38912 1.66277e-17
4462.33559 1.61932e-17
4465.27203 1.62058e-17
4468.20848 1.67029e-17
4471.15495 1.67120e-17
4474.09139 1.68079e-17
4477.02784 1.68711e-17
4479.97431 1.65656e-17
4482.91075 1.64770e-17
4485.84720 1.66736e-17
4488.79367 1.67023e-17
4491.73011 1.69226e-17
4494.66656 1.72198e-17
4497.61303 1.73777e-17
4500.54947 1.74274e-17
4503.48592 1.69578e-17
4506.43239 1.70231e-17
4509.36883 1.73088e-17
4512.30528 1.74178e-17
4515.25175 1.74043e-17
4518.18819 1.72230e-17
4521.12464 1.71680e-17
4524.07111 1.71891e-17
4527.00755 1.73883e-17
4529.94400 1.74934e-17
4532.89047 1.79131e-17
4535.82691 1.84154e-17
4538.76336 1.81929e-17
4541.70983 1.82485e-17
4544.64627 1.84262e-17
4547.58272 1.84991e-17
4550.52919 1.86802e-17
4553.46563 1.92046e-17
4556.40208 1.87699e-17
4559.34855 1.87747e-17
4562.28499 1.92341e-17
4565.22144 1.91074e-17
4568.16791 1.87554e-17
4571.10435 1.91108e-17
4574.04080 1.94469e-17
4576.98727 1.92275e-17
4579.92371 1.92070e-17
4582.86016 1.91725e-17
4585.80663 1.88766e-17
4588.74307 1.84766e-17
4591.67952 1.82547e-17
4594.62599 1.82776e-17
4597.56243 1.84083e-17
4600.50890 1.85483e-17
4603.44535 1.83304e-17
4606.38179 1.81380e-17
4609.32826 1.79642e-17
4612.26471 1.81583e-17
4615.20115 1.87670e-17
4618.14762 1.88977e-17
4621.08407 1.84849e-17
4624.02051 1.80855e-17
4626.96698 1.81743e-17
4629.90343 1.83647e-17
4632.83987 1.81660e-17
4635.78634 1.79623e-17
4638.72279 1.80264e-17
4641.65923 1.82559e-17
4644.60570 1.83072e-17
4647.54215 1.82033e-17
4650.47859 1.81548e-17
4653.42506 1.79846e-17
4656.36151 1.77792e-17
4659.29795 1.80336e-17
4662.24442 1.81691e-17
4665.18087 1.79036e-17
4668.11731 1.78051e-17
4671.06378 1.75029e-17
4674.00023 1.69806e-17
4676.93667 1.68683e-17
4679.88314 1.72036e-17
4682.81959 1.73572e-17
4685.75603 1.69821e-17
4688.70250 1.69454e-17
4691.63895 1.68362e-17
4694.57539 1.65678e-17
4697.52186 1.66269e-17
4700.45831 1.66395e-17
4703.39475 1.66127e-17
4706.34122 1.65641e-17
4709.27767 1.64512e-17
4712.21411 1.63530e-17
4715.16058 1.61237e-17
4718.09703 1.59297e-17
4721.03347 1.64520e-17
4723.97994 1.63180e-17
4726.91639 1.57738e-17
4729.85283 1.59291e-17
4732.79930 1.62504e-17
4735.73575 1.57125e-17
4738.67219 1.53474e-17
4741.61866 1.54078e-17
4744.55511 1.53831e-17
4747.49155 1.54174e-17
4750.43802 1.53462e-17
4753.37447 1.52608e-17
4756.31091 1.51584e-17
4759.25738 1.50616e-17
4762.19383 1.48086e-17
4765.13027 1.43812e-17
4768.07674 1.39198e-17
4771.01319 1.39910e-17
4773.94963 1.43494e-17
4776.89610 1.44110e-17
4779.83255 1.41114e-17
4782.76899 1.40167e-17
4785.71546 1.42900e-17
4788.65191 1.44540e-17
4791.58835 1.44160e-17
4794.53482 1.45406e-17
4797.47127 1.46644e-17
4800.41774 1.48446e-17
4803.35418 1.48533e-17
4806.29063 1.45128e-17
4809.23710 1.43189e-17
4812.17354 1.45121e-17
4815.10999 1.44595e-17
4818.05646 1.41452e-17
4820.99290 1.42478e-17
4823.92935 1.45740e-17
4826.87582 1.45883e-17
4829.81226 1.40138e-17
4832.74871 1.39807e-17
4835.69518 1.41167e-17
4838.63162 1.41199e-17
4841.56807 1.40164e-17
4844.51454 1.37292e-17
4847.45098 1.37956e-17
4850.38743 1.38944e-17
4853.33390 1.37541e-17
4856.27034 1.38129e-17
4859.20679 1.38717e-17
4862.15326 1.39304e-17
4865.08970 1.39892e-17
4868.02615 1.40479e-17
4870.97262 1.41066e-17
4873.90906 1.41654e-17
4876.84551 1.42241e-17
4879.79198 1.42828e-17
4882.72842 1.43415e-17
4885.66487 1.44001e-17
4888.61134 1.44588e-17
4891.54778 1.45175e-17
4894.48423 1.43821e-17
4897.43070 1.40448e-17
4900.36714 1.40169e-17
4903.30359 1.42810e-17
4906.25006 1.44844e-17
4909.18650 1.45505e-17
4912.12295 1.45225e-17
4915.06942 1.44451e-17
4918.00586 1.44401e-17
4920.94231 1.46006e-17
4923.88878 1.45456e-17
4926.82522 1.47148e-17
4929.76167 1.50597e-17
4932.70814 1.52192e-17
4935.64458 1.52698e-17
4938.58103 1.51283e-17
4941.52750 1.47896e-17
4944.46394 1.47672e-17
4947.40039 1.50316e-17
4950.34686 1.48659e-17
4953.28330 1.47199e-17
4956.21975 1.45739e-17
4959.16622 1.44279e-17
4962.10266 1.42819e-17
4965.03911 1.41360e-17
4967.98558 1.39901e-17
4970.92202 1.38442e-17
4973.85847 1.36983e-17
4976.80494 1.35525e-17
4979.74138 1.34067e-17
4982.67783 1.32610e-17
4985.62430 1.31152e-17
4988.56074 1.29695e-17
4991.49719 1.28735e-17
4994.44366 1.28789e-17
4997.38010 1.30431e-17
5000.32657 1.30354e-17
5003.26302 1.30278e-17
5006.19946 1.30201e-17
5009.14593 1.30125e-17
5012.08238 1.30048e-17
5015.01882 1.29971e-17
5017.96529 1.29895e-17
5020.90174 1.29818e-17
5023.83818 1.29742e-17
5026.78465 1.29665e-17
5029.72110 1.29589e-17
5032.65754 1.29513e-17
5035.60401 1.29436e-17
5038.54046 1.29360e-17
5041.47690 1.30423e-17
5044.42337 1.28317e-17
5047.35982 1.29912e-17
5050.29626 1.29445e-17
5053.24273 1.31451e-17
5056.17918 1.32414e-17
5059.11562 1.31438e-17
5062.06209 1.32625e-17
5064.99854 1.33225e-17
5067.93498 1.32115e-17
5070.88145 1.32251e-17
5073.81790 1.32747e-17
5076.75434 1.30016e-17
5079.70081 1.29624e-17
5082.63726 1.34636e-17
5085.57370 1.37687e-17
5088.52017 1.35434e-17
5091.45662 1.33341e-17
5094.39306 1.34455e-17
5097.33953 1.36547e-17
5100.27598 1.33037e-17
5103.21242 1.30641e-17
5106.15889 1.30098e-17
5109.09534 1.29942e-17
5112.03178 1.33832e-17
5114.97825 1.33167e-17
5117.91470 1.31800e-17
5120.85114 1.35895e-17
5123.79761 1.38228e-17
5126.73406 1.35783e-17
5129.67050 1.34398e-17
5132.61697 1.36053e-17
5135.55342 1.34151e-17
5138.48986 1.32653e-17
5141.43633 1.34723e-17
5144.37278 1.36240e-17
5147.30922 1.36693e-17
5150.25569 1.35716e-17
5153.19214 1.33847e-17
5156.12858 1.33201e-17
5159.07505 1.34098e-17
5162.01150 1.34923e-17
5164.94794 1.35372e-17
5167.89441 1.34389e-17
5170.83086 1.36780e-17
5173.76730 1.43397e-17
5176.71377 1.42578e-17
5179.65022 1.36656e-17
5182.58666 1.39131e-17
5185.53313 1.43312e-17
5188.46958 1.43070e-17
5191.40602 1.43933e-17
5194.35249 1.46845e-17
5197.28894 1.44512e-17
5200.22538 1.42307e-17
5203.17185 1.44941e-17
5206.10830 1.44855e-17
5209.05476 1.44267e-17
5211.99121 1.45534e-17
5214.92766 1.44103e-17
5217.87412 1.46920e-17
5220.81057 1.48155e-17
5223.74702 1.48710e-17
5226.69348 1.50513e-17
5229.62993 1.50415e-17
5232.56638 1.49300e-17
5235.51284 1.48348e-17
5238.44929 1.50547e-17
5241.38574 1.53494e-17
5244.33220 1.52992e-17
5247.26865 1.49612e-17
5250.20510 1.48417e-17
5253.15156 1.50082e-17
5256.08801 1.48558e-17
5259.02446 1.45990e-17
5261.97092 1.47570e-17
5264.90737 1.50613e-17
5267.84382 1.51334e-17
5270.79028 1.51055e-17
5273.72673 1.50545e-17
5276.66318 1.50456e-17
5279.60964 1.52156e-17
5282.54609 1.52139e-17
5285.48254 1.53348e-17
5288.42900 1.52283e-17
5291.36545 1.50843e-17
5294.30190 1.52807e-17
5297.24836 1.53908e-17
5300.18481 1.50926e-17
5303.12126 1.51794e-17
5306.06772 1.53517e-17
5309.00417 1.50289e-17
5311.94062 1.46882e-17
5314.88708 1.45115e-17
5317.82353 1.46056e-17
5320.75998 1.47478e-17
5323.70644 1.47144e-17
5326.64289 1.46619e-17
5329.57934 1.45508e-17
5332.52580 1.46439e-17
5335.46225 1.45945e-17
5338.39870 1.44898e-17
5341.34516 1.43803e-17
5344.28161 1.42369e-17
5347.21806 1.41309e-17
5350.16452 1.43420e-17
5353.10097 1.44591e-17
5356.03742 1.44307e-17
5358.98388 1.45718e-17
5361.92033 1.45492e-17
5364.85678 1.44652e-17
5367.80324 1.44239e-17
5370.73969 1.44200e-17
5373.67614 1.45948e-17
5376.62260 1.44766e-17
5379.55905 1.42594e-17
5382.49550 1.45309e-17
5385.44196 1.47203e-17
5388.37841 1.47028e-17
5391.31486 1.47335e-17
5394.26132 1.47493e-17
5397.19777 1.49049e-17
5400.14424 1.51372e-17
5403.08068 1.50970e-17
5406.01713 1.46052e-17
5408.95358 1.43445e-17
5411.90004 1.43576e-17
5414.83649 1.44228e-17
5417.78296 1.44422e-17
5420.71940 1.43222e-17
5423.65585 1.45235e-17
5426.60232 1.49988e-17
5429.53876 1.46686e-17
5432.47521 1.39878e-17
5435.42168 1.41054e-17
5438.35812 1.45043e-17
5441.29457 1.46044e-17
5444.24104 1.46062e-17
5447.17748 1.45245e-17
5450.11393 1.44428e-17
5453.06040 1.42795e-17
5455.99684 1.40594e-17
5458.93329 1.41614e-17
5461.87976 1.42223e-17
5464.81620 1.41507e-17
5467.75265 1.42338e-17
5470.69912 1.40428e-17
5473.63556 1.38283e-17
5476.57201 1.37070e-17
5479.51848 1.34900e-17
5482.45492 1.36019e-17
5485.39137 1.37156e-17
5488.33784 1.36072e-17
5491.27428 1.33898e-17
5494.21073 1.34461e-17
5497.15720 1.35736e-17
5500.09364 1.34845e-17
5503.03009 1.32505e-17
5505.97656 1.31624e-17
5508.91300 1.33536e-17
5511.84945 1.34536e-17
5514.79592 1.33142e-17
5517.73236 1.32725e-17
5520.66881 1.32539e-17
5523.61528 1.33183e-17
5526.55172 1.32205e-17
5529.48817 1.31675e-17
5532.43464 1.34446e-17
5535.37108 1.34915e-17
5538.30753 1.34217e-17
5541.25400 1.31571e-17
5544.19044 1.29660e-17
5547.12689 1.33603e-17
5550.07336 1.32634e-17
5553.00980 1.32116e-17
5555.94625 1.34765e-17
5558.89272 1.34707e-17
5561.82916 1.32719e-17
5564.76561 1.31773e-17
5567.71208 1.33976e-17
5570.64852 1.34150e-17
5573.58497 1.32630e-17
5576.53144 1.31371e-17
5579.46788 1.27168e-17
5582.40433 1.27703e-17
5585.35080 1.27228e-17
5588.28724 1.26030e-17
5591.22369 1.28335e-17
5594.17016 1.31959e-17
5597.10660 1.32185e-17
5600.04305 1.27470e-17
5602.98952 1.23334e-17
5605.92596 1.25372e-17
5608.87243 1.27522e-17
5611.80888 1.26495e-17
5614.74532 1.26325e-17
5617.68177 1.25393e-17
5620.62824 1.23927e-17
5623.56468 1.23820e-17
5626.51115 1.22317e-17
5629.44760 1.19643e-17
5632.38404 1.20728e-17
5635.33051 1.22457e-17
5638.26696 1.21595e-17
5641.20340 1.20133e-17
5644.14987 1.21837e-17
5647.08632 1.25281e-17
5650.02276 1.21383e-17
5652.96923 1.18412e-17
5655.90568 1.21098e-17
5658.84212 1.22578e-17
5661.78859 1.21373e-17
5664.72504 1.17463e-17
5667.66148 1.14854e-17
5670.60795 1.16576e-17
5673.54440 1.17545e-17
5676.48084 1.16237e-17
5679.42731 1.16341e-17
5682.36376 1.15800e-17
5685.30020 1.14565e-17
5688.24667 1.14615e-17
5691.18312 1.13577e-17
5694.11956 1.13150e-17
5697.06603 1.14015e-17
5700.00248 1.15580e-17
5702.93892 1.17926e-17
5705.88539 1.18338e-17
5708.82184 1.14994e-17
5711.75828 1.13887e-17
5714.70475 1.13836e-17
5717.64120 1.12403e-17
5720.57764 1.12862e-17
5723.52411 1.13975e-17
5726.46056 1.13681e-17
5729.39700 1.13303e-17
5732.34347 1.15210e-17
5735.27992 1.13081e-17
5738.21636 1.13205e-17
5741.16283 1.16270e-17
5744.09928 1.15936e-17
5747.03572 1.15059e-17
5749.98219 1.16071e-17
5752.91864 1.18785e-17
5755.85508 1.19577e-17
5758.80155 1.16530e-17
5761.73800 1.14149e-17
5764.67444 1.14110e-17
5767.62091 1.15545e-17
5770.55736 1.17691e-17
5773.49380 1.20735e-17
5776.44027 1.17813e-17
5779.37672 1.18011e-17
5782.31316 1.20060e-17
5785.25963 1.20006e-17
5788.19608 1.16044e-17
5791.13252 1.15259e-17
5794.07899 1.15592e-17
5797.01544 1.16072e-17
5799.95188 1.17021e-17
5802.89835 1.17071e-17
5805.83480 1.16245e-17
5808.77124 1.15308e-17
5811.71771 1.14877e-17
5814.65416 1.16160e-17
5817.60063 1.18483e-17
5820.53707 1.16378e-17
5823.47352 1.13456e-17
5826.40996 1.16275e-17
5829.35643 1.16677e-17
5832.29288 1.17488e-17
5835.23935 1.17888e-17
5838.17579 1.16191e-17
5841.11224 1.16836e-17
5844.05871 1.19259e-17
5846.99515 1.17792e-17
5849.93160 1.15033e-17
5852.87807 1.13701e-17
5855.81451 1.16293e-17
5858.75096 1.16345e-17
5861.69743 1.13810e-17
5864.63387 1.13619e-17
5867.57032 1.15203e-17
5870.51679 1.16226e-17
5873.45323 1.16472e-17
5876.38968 1.15967e-17
5879.33615 1.16432e-17
5882.27259 1.17155e-17
5885.20904 1.16914e-17
5888.15551 1.18204e-17
5891.09195 1.19360e-17
5894.02840 1.19504e-17
5896.97487 1.17129e-17
5899.91131 1.16199e-17
5902.84776 1.18636e-17
5905.79423 1.18716e-17
5908.73067 1.12267e-17
5911.66712 1.12349e-17
5914.61359 1.16530e-17
5917.55003 1.15374e-17
5920.48648 1.13983e-17
5923.43295 1.12400e-17
5926.36939 1.10525e-17
5929.30584 1.12283e-17
5932.25231 1.13917e-17
5935.18875 1.14125e-17
5938.12520 1.14500e-17
5941.07167 1.13369e-17
5944.00811 1.13388e-17
5946.94456 1.14997e-17
5949.89103 1.14737e-17
5952.82747 1.12898e-17
5955.76392 1.11435e-17
5958.71039 1.11171e-17
5961.64683 1.11000e-17
5964.58328 1.08570e-17
5967.52975 1.09023e-17
5970.46619 1.08642e-17
5973.40264 1.10116e-17
5976.34911 1.11105e-17
5979.28555 1.10658e-17
5982.22200 1.10009e-17
5985.16847 1.10650e-17
5988.10491 1.11610e-17
5991.04136 1.12397e-17
5993.98783 1.12488e-17
5996.92427 1.12497e-17
5999.86072 1.12181e-17
6002.80719 1.09446e-17
6005.74363 1.08879e-17
6008.69010 1.08734e-17
6011.62655 1.07119e-17
6014.56299 1.06240e-17
6017.49944 1.07341e-17
6020.44591 1.09997e-17
6023.38235 1.11526e-17
6026.32882 1.11858e-17
6029.26527 1.10785e-17
6032.20171 1.08120e-17
6035.14818 1.05538e-17
6038.08463 1.01998e-17
6041.02107 1.02029e-17
6043.96754 1.05415e-17
6046.90399 1.06639e-17
6049.84043 1.06195e-17
6052.78690 1.05226e-17
6055.72335 1.03870e-17
6058.65979 1.03420e-17
6061.60626 1.04346e-17
6064.54271 1.05630e-17
6067.47915 1.07589e-17
6070.42562 1.09024e-17
6073.36207 1.07795e-17
6076.29851 1.07869e-17
6079.24498 1.07371e-17
6082.18143 1.07394e-17
6085.11787 1.10007e-17
6088.06434 1.09982e-17
6091.00079 1.09835e-17
6093.93723 1.10530e-17
6096.88370 1.09411e-17
6099.82015 1.07334e-17
6102.75659 1.05800e-17
6105.70306 1.07466e-17
6108.63951 1.10741e-17
6111.57595 1.10799e-17
6114.52242 1.10066e-17
6117.45887 1.11287e-17
6120.39531 1.12728e-17
6123.34178 1.10671e-17
6126.27823 1.08580e-17
6129.21467 1.08273e-17
6132.16114 1.07605e-17
6135.09759 1.07860e-17
6138.03403 1.06706e-17
6140.98050 1.08298e-17
6143.91695 1.07162e-17
6146.85339 1.01309e-17
6149.79986 9.93635e-18
6152.73631 1.02835e-17
6155.67275 1.02038e-17
6158.61922 9.81059e-18
6161.55567 9.91842e-18
6164.49211 9.99953e-18
6167.43858 9.92452e-18
6170.37503 9.82889e-18
6173.31147 9.68036e-18
6176.25794 9.66949e-18
6179.19439 9.77099e-18
6182.13083 9.93478e-18
6185.07730 9.83561e-18
6188.01375 9.76708e-18
6190.95019 9.70009e-18
6193.89666 9.76931e-18
6196.83311 9.83786e-18
6199.76955 9.86742e-18
6202.71602 9.82606e-18
6205.65247 9.84411e-18
6208.58891 1.00453e-17
6211.53538 9.98833e-18
6214.47183 9.89396e-18
6217.41829 9.92996e-18
6220.35474 9.78606e-18
6223.29119 1.01329e-17
6226.23765 1.02428e-17
6229.17410 9.75304e-18
6232.11055 9.48057e-18
6235.05701 9.76165e-18
6237.99346 9.98100e-18
6240.92991 1.01411e-17
6243.87637 1.01223e-17
6246.81282 9.99465e-18
6249.74927 9.75300e-18
6252.69573 9.62573e-18
6255.63218 9.88143e-18
6258.56863 9.95799e-18
6261.51509 9.81470e-18
6264.45154 9.80521e-18
6267.38799 9.88765e-18
6270.33445 1.03083e-17
6273.27090 1.02660e-17
6276.20735 1.00115e-17
6279.15381 1.01070e-17
6282.09026 9.98361e-18
6285.02671 9.84468e-18
6287.97317 9.78282e-18
6290.90962 9.98266e-18
6293.84607 1.01475e-17
6296.79253 1.00383e-17
6299.72898 9.85222e-18
6302.66543 9.89101e-18
6305.61189 9.96648e-18
6308.54834 9.81636e-18
6311.48479 9.77712e-18
6314.43125 9.79205e-18
6317.36770 9.83848e-18
6320.30415 1.03184e-17
6323.25061 1.04838e-17
6326.18706 1.04303e-17
6329.12351 1.02658e-17
6332.06997 1.01666e-17
6335.00642 1.01356e-17
6337.94287 9.98133e-18
6340.88933 1.01948e-17
6343.82578 1.04566e-17
6346.76223 1.04789e-17
6349.70869 1.02976e-17
6352.64514 1.02989e-17
6355.58159 1.05083e-17
6358.52805 1.03506e-17
6361.46450 9.99839e-18
6364.40095 9.85395e-18
6367.34741 1.01076e-17
6370.28386 1.01849e-17
6373.22031 9.85015e-18
6376.16677 9.87732e-18
6379.10322 1.00557e-17
6382.03967 1.00074e-17
6384.98613 9.87339e-18
6387.92258 9.64716e-18
6390.85903 9.39453e-18
6393.80549 9.29089e-18
6396.74194 9.30356e-18
6399.67839 9.47902e-18
6402.62485 9.48861e-18
6405.56130 9.35762e-18
6408.49775 9.49044e-18
6411.44421 9.50719e-18
6414.38066 9.60101e-18
6417.32713 9.54389e-18
6420.26357 9.48028e-18
6423.20002 9.72030e-18
6426.14649 9.75682e-18
6429.08293 9.62810e-18
6432.01938 9.49781e-18
6434.96585 9.68649e-18
6437.90229 1.00287e-17
6440.83874 1.01039e-17
6443.78521 1.00875e-17
6446.72165 1.02807e-17
6449.65810 1.04691e-17
6452.60457 1.03903e-17
6455.54101 1.01532e-17
6458.47746 1.02094e-17
6461.42393 1.05185e-17
6464.36037 1.03847e-17
6467.29682 1.02684e-17
6470.24329 9.95665e-18
6473.17973 9.90830e-18
6476.11618 1.00226e-17
6479.06265 1.00191e-17
6481.99909 9.95657e-18
6484.93554 1.00084e-17
6487.88201 1.02931e-17
6490.81845 1.04976e-17
6493.75490 1.04598e-17
6496.70137 1.02765e-17
6499.63781 1.01042e-17
6502.57426 1.01647e-17
6505.52073 1.01576e-17
6508.45717 1.03550e-17
6511.39362 1.06411e-17
6514.34009 1.06352e-17
6517.27653 1.02855e-17
6520.21298 9.86430e-18
6523.15945 1.00676e-17
6526.09589 1.02311e-17
6529.03234 1.01478e-17
6531.97881 1.03162e-17
6534.91525 1.04100e-17
6537.85170 1.03926e-17
6540.79817 1.05654e-17
6543.73461 1.06795e-17
6546.67106 1.06390e-17
6549.61753 1.06087e-17
6552.55397 1.05784e-17
6555.49042 1.05481e-17
6558.43689 1.05179e-17
6561.37333 1.04876e-17
6564.30978 1.04573e-17
6567.25625 1.04270e-17
6570.19269 1.03967e-17
6573.12914 1.03665e-17
6576.07561 1.03362e-17
6579.01205 1.03059e-17
6581.94850 1.02756e-17
6584.89497 1.02454e-17
6587.83141 1.02151e-17
6590.76786 1.01848e-17
6593.71433 1.01546e-17
6596.65077 1.01243e-17
6599.58722 1.00941e-17
6602.53369 1.00638e-17
6605.47013 1.00336e-17
6608.41660 1.00033e-17
6611.35305 1.00379e-17
6614.28949 1.01773e-17
6617.23596 9.95530e-18
6620.17241 9.85657e-18
6623.10885 9.96127e-18
6626.05532 9.64538e-18
6628.99177 9.50536e-18
6631.92821 9.81622e-18
6634.87468 9.97839e-18
6637.81113 9.99696e-18
6640.74757 1.01124e-17
6643.69404 1.01547e-17
6646.63049 1.00305e-17
6649.56693 1.01102e-17
6652.51340 9.97015e-18
6655.44985 9.77462e-18
6658.38629 9.88306e-18
6661.33276 9.83571e-18
6664.26921 9.69066e-18
6667.20565 9.76271e-18
6670.15212 9.83915e-18
6673.08857 9.85067e-18
6676.02501 9.81941e-18
6678.97148 9.80354e-18
6681.90793 9.70339e-18
6684.84437 9.65690e-18
6687.79084 9.73194e-18
6690.72729 9.75266e-18
6693.66373 9.73683e-18
6696.61020 9.85614e-18
6699.54665 1.01955e-17
6702.48309 9.91644e-18
6705.42956 9.64911e-18
6708.36601 9.85793e-18
6711.30245 9.60090e-18
6714.24892 9.33633e-18
6717.18537 9.50379e-18
6720.12181 9.58554e-18
6723.06828 9.43370e-18
6726.00473 9.24814e-18
6728.94117 8.97531e-18
6731.88764 8.91656e-18
6734.82409 9.22553e-18
6737.76053 9.29963e-18
6740.70700 9.32302e-18
6743.64345 9.49681e-18
6746.57989 9.32029e-18
6749.52636 9.09888e-18
6752.46281 8.96116e-18
6755.39925 8.55737e-18
6758.34572 8.48018e-18
6761.28217 8.73110e-18
6764.21861 8.98430e-18
6767.16508 9.01870e-18
6770.10153 8.97966e-18
6773.03797 8.91462e-18
6775.98444 8.93595e-18
6778.92089 8.74451e-18
6781.85733 8.54766e-18
6784.80380 8.46265e-18
6787.74025 8.31478e-18
6790.67669 8.30360e-18
6793.62316 8.33597e-18
6796.55961 8.25125e-18
6799.50608 8.45662e-18
6802.44252 8.77493e-18
6805.37897 8.76400e-18
6808.32544 8.53971e-18
6811.26188 8.50772e-18
6814.19833 8.55106e-18
6817.14480 8.27962e-18
6820.08124 8.12642e-18
6823.01769 8.26457e-18
6825.96416 8.36178e-18
6828.90060 8.22822e-18
6831.83705 8.20312e-18
6834.78352 8.38839e-18
6837.71996 8.42652e-18
6840.65641 8.44314e-18
6843.60288 8.30108e-18
6846.53932 8.10409e-18
6849.47577 8.33624e-18
6852.42224 8.53461e-18
6855.35868 8.25309e-18
6858.29513 8.17857e-18
6861.24160 8.22398e-18
6864.17804 8.07596e-18
6867.11449 7.87614e-18
6870.06096 7.92098e-18
6872.99740 8.20860e-18
6875.93385 8.40970e-18
6878.88032 8.38193e-18
6881.81676 8.19658e-18
6884.75321 8.18222e-18
6887.69968 8.07036e-18
6890.63612 7.86850e-18
6893.57257 7.88239e-18
6896.51904 8.19630e-18
6899.45548 8.08303e-18
6902.39193 7.87335e-18
6905.33840 8.00923e-18
6908.27484 7.91063e-18
6911.21129 7.78267e-18
6914.15776 8.16559e-18
6917.09420 8.37042e-18
6920.03065 8.25237e-18
6922.97712 8.37645e-18
6925.91356 8.44077e-18
6928.85001 8.33180e-18
6931.79648 8.34111e-18
6934.73292 8.38048e-18
6937.66937 8.07615e-18
6940.61584 7.84421e-18
6943.55228 7.86556e-18
6946.48873 7.94492e-18
6949.43520 7.98652e-18
6952.37164 8.03797e-18
6955.30809 8.27669e-18
6958.25456 8.46990e-18
6961.19100 8.36107e-18
6964.12745 8.20164e-18
6967.07392 8.26897e-18
6970.01036 8.03364e-18
6972.94681 8.03513e-18
6975.89328 7.98414e-18
6978.82972 7.86998e-18
6981.76617 7.88604e-18
6984.71264 7.92410e-18
6987.64908 7.92442e-18
6990.59555 8.00342e-18
6993.53200 8.26086e-18
6996.46844 8.29023e-18
6999.40489 8.03504e-18
7002.35136 7.95490e-18
7005.28780 8.05433e-18
7008.23427 8.04509e-18
7011.17072 8.06679e-18
7014.10716 7.76184e-18
7017.05363 7.43109e-18
7019.99008 7.49939e-18
7022.92652 7.58197e-18
7025.87299 7.71420e-18
7028.80944 7.96371e-18
7031.74588 8.21164e-18
7034.69235 8.61643e-18
7037.62880 8.50196e-18
7040.56524 8.32521e-18
7043.51171 7.96586e-18
7046.44816 7.67512e-18
7049.38460 7.43147e-18
7052.33107 7.31011e-18
7055.26752 7.64879e-18
7058.20396 8.06382e-18
7061.15043 8.02331e-18
7064.08688 7.99497e-18
7067.02332 8.28037e-18
7069.96979 8.29690e-18
7072.90624 8.12487e-18
7075.84268 8.06674e-18
7078.78915 7.86987e-18
7081.72560 7.91761e-18
7084.66204 8.09763e-18
7087.60851 7.94711e-18
7090.54496 7.69397e-18
7093.48140 7.68664e-18
7096.42787 7.91543e-18
7099.36432 8.45057e-18
7102.30076 8.57416e-18
7105.24723 8.02306e-18
7108.18368 7.91446e-18
7111.12012 8.08137e-18
7114.06659 8.43708e-18
7117.00304 8.54507e-18
7119.93948 8.47313e-18
7122.88595 8.21213e-18
7125.82240 8.22935e-18
7128.75884 8.33411e-18
7131.70531 8.19515e-18
7134.64176 8.09027e-18
7137.57820 8.18615e-18
7140.52467 8.36898e-18
7143.46112 8.54464e-18
7146.39756 8.63106e-18
7149.34403 8.59341e-18
7152.28048 8.46407e-18
7155.21692 8.23063e-18
7158.16339 8.06535e-18
7161.09984 8.03271e-18
7164.03628 7.93246e-18
7166.98275 7.95939e-18
7169.91920 8.20098e-18
7172.85564 8.57080e-18
7175.80211 8.91408e-18
7178.73856 8.97458e-18
7181.67500 8.85969e-18
7184.62147 8.66481e-18
7187.55792 8.36943e-18
7190.49436 7.97603e-18
7193.44083 8.03105e-18
7196.37728 8.19666e-18
7199.32374 8.24086e-18
7202.26019 8.27268e-18
7205.19664 8.43135e-18
7208.13308 8.34888e-18
7211.07955 8.26699e-18
7214.01600 8.58616e-18
7216.96246 8.56301e-18
7219.89891 8.35427e-18
7222.83536 8.44045e-18
7225.78182 8.64341e-18
7228.71827 8.47926e-18
7231.65472 8.32650e-18
7234.60118 8.10730e-18
7237.53763 7.84640e-18
7240.47408 7.87057e-18
7243.42054 7.89364e-18
7246.35699 7.84843e-18
7249.29344 7.85014e-18
7252.23990 7.69147e-18
7255.17635 7.68542e-18
7258.11280 7.86765e-18
7261.05926 8.18370e-18
7263.99571 8.25585e-18
7266.93216 8.25388e-18
7269.87862 8.17442e-18
7272.81507 8.21149e-18
7275.75152 8.04605e-18
7278.69798 7.64725e-18
7281.63443 7.49543e-18
7284.57088 7.57849e-18
7287.51734 7.69364e-18
7290.45379 7.54218e-18
7293.39024 7.30557e-18
7296.33670 7.56971e-18
7299.27315 7.72214e-18
7302.20960 8.02629e-18
7305.15606 8.22683e-18
7308.09251 8.15289e-18
7311.02896 8.12739e-18
7313.97542 8.15408e-18
7316.91187 8.07531e-18
7319.84832 7.68788e-18
7322.79478 7.23092e-18
7325.73123 7.37456e-18
7328.66768 7.67469e-18
7331.61414 8.09484e-18
7334.55059 8.64887e-18
7337.48704 8.57429e-18
7340.43350 8.37146e-18
7343.36995 8.39883e-18
7346.30640 8.50836e-18
7349.25286 8.26686e-18
7352.18931 7.82915e-18
7355.12576 7.74087e-18
7358.07222 7.69563e-18
7361.00867 7.52105e-18
7363.94512 7.36561e-18
7366.89158 7.39226e-18
7369.82803 7.28021e-18
7372.76448 7.42722e-18
7375.71094 7.83988e-18
7378.64739 7.98693e-18
7381.58384 7.87073e-18
7384.53030 7.83791e-18
7387.46675 7.87307e-18
7390.41322 7.83810e-18
7393.34966 7.70824e-18
7396.28611 7.49797e-18
7399.22256 7.54585e-18
7402.16902 7.73981e-18
7405.10547 7.38842e-18
7408.05194 6.94430e-18
7410.98838 7.00833e-18
7413.92483 6.89959e-18
7416.86128 6.94814e-18
7419.80774 7.19596e-18
7422.74419 7.02484e-18
7425.69066 6.98799e-18
7428.62710 7.18013e-18
7431.56355 7.32988e-18
7434.51002 7.19208e-18
7437.44646 6.66086e-18
7440.38291 5.74309e-18
7443.32938 4.97647e-18
7446.26582 4.25521e-18
7449.20227 3.54750e-18
7452.14874 3.30620e-18
7455.08518 3.94206e-18
7458.02163 5.01493e-18
7460.96810 5.38951e-18
7463.90454 6.34210e-18
7466.84099 6.18737e-18
7469.78746 5.33993e-18
7472.72390 4.81103e-18
7475.66035 4.70122e-18
7478.60682 4.51263e-18
7481.54326 4.17719e-18
7484.47971 4.11795e-18
7487.42618 4.22796e-18
7490.36262 4.14866e-18
7493.29907 4.06367e-18
7496.24554 4.31038e-18
7499.18198 4.71461e-18
7502.11843 4.79892e-18
7505.06490 4.90417e-18
7508.00134 4.59375e-18
7510.93779 4.31897e-18
7513.88426 4.58943e-18
7516.82070 4.66733e-18
7519.75715 4.50103e-18
7522.70362 4.32444e-18
7525.64006 4.07711e-18
7528.57651 4.03252e-18
7531.52298 3.97815e-18
7534.45942 4.15300e-18
7537.39587 4.45616e-18
7540.34234 4.66845e-18
7543.27878 4.75157e-18
7546.21523 4.76274e-18
7549.16170 4.91931e-18
7552.09814 4.91043e-18
7555.03459 4.89708e-18
7557.98106 4.98467e-18
7560.91750 4.63382e-18
7563.85395 4.45522e-18
7566.80042 4.81581e-18
7569.73686 4.98716e-18
7572.67331 4.76223e-18
7575.61978 4.92054e-18
7578.55622 5.28232e-18
7581.49267 5.14227e-18
7584.43914 5.07101e-18
7587.37558 5.32537e-18
7590.31203 5.73683e-18
7593.25850 6.12639e-18
7596.19494 6.02413e-18
7599.14141 5.92826e-18
7602.07786 5.52160e-18
7605.01430 5.04896e-18
7607.95075 4.98766e-18
7610.89722 5.18945e-18
7613.83366 5.22207e-18
7616.78013 5.13303e-18
7619.71658 5.03202e-18
7622.65302 5.17207e-18
7625.59949 5.49352e-18
7628.53594 5.76058e-18
7631.47238 6.35049e-18
7634.41885 6.69602e-18
7637.35530 6.75657e-18
7640.29174 6.58653e-18
7643.23821 6.50818e-18
7646.17466 6.17236e-18
7649.11110 5.90861e-18
7652.05757 6.00849e-18
7654.99402 5.91228e-18
7657.93046 5.69378e-18
7660.87693 5.79533e-18
7663.81338 5.81477e-18
7666.74982 6.03459e-18
7669.69629 6.92557e-18
7672.63274 6.80718e-18
7675.56918 6.53524e-18
7678.51565 6.69921e-18
7681.45210 6.88391e-18
7684.38854 7.01211e-18
7687.33501 6.92677e-18
7690.27146 6.65135e-18
7693.20790 6.55807e-18
7696.15437 6.61778e-18
7699.09082 6.70300e-18
7702.02726 6.95535e-18
7704.97373 7.22797e-18
7707.91018 7.00638e-18
7710.84662 6.70710e-18
7713.79309 7.12626e-18
7716.72954 7.59364e-18
7719.66598 7.68533e-18
7722.61245 7.75157e-18
7725.54890 7.70344e-18
7728.48534 7.64169e-18
7731.43181 7.38327e-18
7734.36826 7.31290e-18
7737.30470 7.09049e-18
7740.25117 6.85697e-18
7743.18762 6.51731e-18
7746.12406 6.35516e-18
7749.07053 6.56821e-18
7752.00698 7.11588e-18
7754.94342 7.87275e-18
7757.88989 8.02469e-18
7760.82634 7.64968e-18
7763.76278 7.87122e-18
7766.70925 8.06757e-18
7769.64570 7.94454e-18
7772.58214 7.96231e-18
7775.52861 7.66660e-18
7778.46506 7.44658e-18
7781.40150 7.87207e-18
7784.34797 7.92457e-18
7787.28442 7.45482e-18
7790.22086 7.34817e-18
7793.16733 7.07564e-18
7796.10378 6.90542e-18
7799.04022 6.80094e-18
7801.98669 6.66304e-18
7804.92314 7.13422e-18
7807.86961 7.73272e-18
7810.80605 8.18425e-18
7813.74250 8.13902e-18
7816.67894 7.81432e-18
7819.62541 8.01968e-18
7822.56186 8.42834e-18
7825.50833 8.73969e-18
7828.44477 8.36727e-18
7831.38122 7.84354e-18
7834.32769 7.73780e-18
7837.26413 7.71220e-18
7840.20058 7.71732e-18
7843.14705 7.50551e-18
7846.08349 6.93377e-18
7849.01994 6.49282e-18
7851.96641 6.43085e-18
7854.90285 6.72288e-18
7857.83930 7.05756e-18
7860.78577 7.09187e-18
7863.72221 7.68218e-18
7866.65866 7.88301e-18
7869.60513 7.80841e-18
7872.54157 7.91040e-18
7875.47802 7.80468e-18
7878.42449 7.65856e-18
7881.36093 7.78695e-18
7884.29738 7.75382e-18
7887.24385 7.56956e-18
7890.18029 7.39002e-18
7893.11674 6.86668e-18
7896.06321 6.65007e-18
7898.99965 6.76134e-18
7901.93610 6.55204e-18
7904.88257 6.37942e-18
7907.81901 6.42398e-18
7910.75546 6.34598e-18
7913.70193 6.56601e-18
7916.63837 7.17246e-18
7919.57482 7.52024e-18
7922.52129 7.73673e-18
7925.45773 7.72033e-18
7928.39418 7.80672e-18
7931.34065 7.86351e-18
7934.27709 7.70678e-18
7937.21354 7.48332e-18
7940.16001 7.28192e-18
7943.09645 7.13188e-18
7946.03290 7.03545e-18
7948.97937 6.75809e-18
7951.91581 6.22904e-18
7954.85226 5.95747e-18
7957.79873 6.22169e-18
7960.73517 6.38959e-18
7963.67162 6.19020e-18
7966.61809 5.93539e-18
7969.55453 6.37067e-18
7972.49098 6.98390e-18
7975.43745 6.96708e-18
7978.37389 7.00575e-18
7981.31034 7.15511e-18
7984.25681 7.13544e-18
7987.19325 7.02081e-18
7990.12970 7.18013e-18
7993.07617 6.96163e-18
7996.01261 6.95756e-18
7998.95908 6.88542e-18
8001.89553 6.77629e-18
8004.83197 7.06461e-18
8007.76842 6.85227e-18
8010.71489 6.54606e-18
8013.65133 6.54609e-18
8016.59780 6.06383e-18
8019.53425 5.81082e-18
8022.47069 6.00041e-18
8025.40714 6.00852e-18
8028.35361 5.56769e-18
8031.29005 5.47233e-18
8034.23652 5.89748e-18
8037.17297 5.98676e-18
8040.10941 5.95613e-18
8043.05588 6.17812e-18
8045.99233 6.26223e-18
8048.92877 6.53953e-18
8051.87524 6.41799e-18
8054.81169 6.83077e-18
8057.74813 6.98880e-18
8060.69460 6.48086e-18
8063.63105 6.30263e-18
8066.56749 6.22248e-18
8069.51396 5.62144e-18
8072.45041 5.21670e-18
8075.38685 5.53829e-18
8078.33332 5.39235e-18
8081.26977 5.29000e-18
8084.20621 5.29816e-18
8087.15268 5.31774e-18
8090.08913 5.56100e-18
8093.02557 5.99464e-18
8095.97204 6.13781e-18
8098.90849 5.96761e-18
8101.84493 6.02596e-18
8104.79140 6.05999e-18
8107.72785 5.98410e-18
8110.66429 6.09719e-18
8113.61076 6.35763e-18
8116.54721 5.92198e-18
8119.48365 5.38864e-18
8122.43012 5.26172e-18
8125.36657 5.07326e-18
8128.30301 4.75477e-18
8131.24948 4.61909e-18
8134.18593 4.79937e-18
8137.12237 4.75379e-18
8140.06884 4.62696e-18
8143.00529 4.40715e-18
8145.94173 4.21326e-18
8148.88820 4.26028e-18
8151.82465 4.95078e-18
8154.76109 5.34731e-18
8157.70756 5.01414e-18
8160.64401 5.09375e-18
8163.58045 5.32493e-18
8166.52692 5.50288e-18
8169.46337 5.06707e-18
8172.39981 4.77585e-18
8175.34628 4.31926e-18
8178.28273 3.91489e-18
8181.21917 3.89631e-18
8184.16564 4.01500e-18
8187.10209 4.36812e-18
8190.03853 4.67139e-18
8192.98500 4.37643e-18
8195.92145 4.14901e-18
8198.86791 4.28281e-18
8201.80436 4.42185e-18
8204.74081 4.39080e-18
8207.68727 4.69963e-18
8210.62372 5.13876e-18
8213.56017 5.21563e-18
8216.49661 5.06054e-18
8219.44308 4.64551e-18
8222.37953 4.28777e-18
8225.31597 3.82343e-18
8228.26244 3.44987e-18
8231.19889 3.58674e-18
8234.14535 3.43373e-18
8237.08180 3.48438e-18
8240.01825 4.22208e-18
8242.96471 4.73005e-18
8245.90116 4.48312e-18
8248.83761 4.24287e-18
8251.78407 4.60554e-18
8254.72052 5.29835e-18
8257.65697 5.90831e-18
8260.60343 5.81676e-18
8263.53988 5.13578e-18
8266.47633 4.69975e-18
8269.42279 4.55060e-18
8272.35924 4.36439e-18
8275.29569 4.22680e-18
8278.24215 4.24117e-18
8281.17860 4.00969e-18
8284.11505 3.75118e-18
8287.06151 4.06469e-18
8289.99796 4.62241e-18
8292.93441 5.11985e-18
8295.88087 5.19415e-18
8298.81732 5.51048e-18
8301.75377 6.29669e-18
8304.70023 6.66867e-18
8307.63668 6.21296e-18
8310.57313 5.61558e-18
8313.51959 5.49691e-18
8316.45604 5.07333e-18
8319.39249 4.92754e-18
8322.33895 4.71417e-18
8325.27540 4.51280e-18
8328.21185 4.65248e-18
8331.15831 4.49695e-18
8334.09476 4.49006e-18
8337.03121 5.18757e-18
8339.97767 5.62249e-18
8342.91412 5.94781e-18
8345.85057 5.82157e-18
8348.79703 5.71466e-18
8351.73348 5.58110e-18
8354.66993 5.46994e-18
8357.61639 5.89463e-18
8360.55284 6.21482e-18
8363.48929 5.37070e-18
8366.43575 4.47899e-18
8369.37220 4.62191e-18
8372.30865 4.67814e-18
8375.25511 5.06925e-18
8378.19156 5.50695e-18
8381.12801 5.94384e-18
8384.07447 6.06258e-18
8387.01092 6.07417e-18
8389.95739 6.37313e-18
8392.89383 6.66376e-18
8395.83028 6.78394e-18
8398.76673 6.57502e-18
8401.71319 5.96800e-18
8404.64964 6.05694e-18
8407.59611 6.44438e-18
8410.53255 5.88270e-18
8413.46900 5.22904e-18
8416.41547 5.56554e-18
8419.35191 5.87360e-18
8422.28836 4.69588e-18
8425.23483 3.83452e-18
8428.17127 5.21127e-18
8431.10772 5.87353e-18
8434.05419 5.84640e-18
8436.99063 6.06833e-18
8439.92708 6.31970e-18
8442.87355 6.27556e-18
8445.80999 6.68529e-18
8448.74644 7.23662e-18
8451.69291 7.02038e-18
8454.62935 6.69358e-18
8457.56580 6.51407e-18
8460.51227 6.32403e-18
8463.44871 6.23698e-18
8466.38516 5.96201e-18
8469.33163 5.63202e-18
8472.26807 5.48609e-18
8475.20452 5.56279e-18
8478.15099 5.62499e-18
8481.08743 4.99257e-18
8484.02388 4.84512e-18
8486.97035 6.40591e-18
8489.90679 6.65968e-18
8492.84324 6.49725e-18
8495.78971 6.50198e-18
8498.72615 6.61944e-18
8501.66260 6.89791e-18
8504.60907 7.54120e-18
8507.54551 7.69491e-18
8510.48196 7.10308e-18
8513.42843 6.94953e-18
8516.36487 6.59346e-18
8519.30132 6.57421e-18
8522.24779 6.52095e-18
8525.18423 6.23650e-18
8528.12068 6.07568e-18
8531.06715 6.07739e-18
8534.00359 5.93329e-18
8536.94004 5.87821e-18
8539.88651 6.40774e-18
8542.82295 6.75870e-18
8545.75940 6.42815e-18
8548.70587 6.72440e-18
8551.64231 7.05293e-18
8554.57876 7.02621e-18
8557.52523 7.08788e-18
8560.46167 7.52334e-18
8563.39812 7.72267e-18
8566.34459 7.19927e-18
8569.28103 6.62792e-18
8572.21748 6.57957e-18
8575.16395 6.78434e-18
8578.10039 6.48733e-18
8581.03684 6.22348e-18
8583.98331 6.22730e-18
8586.91975 5.88444e-18
8589.85620 5.62746e-18
8592.80267 5.79880e-18
8595.73911 5.81033e-18
8598.67556 5.86767e-18
8601.62203 5.98156e-18
8604.55847 5.74061e-18
8607.49492 5.83313e-18
8610.44139 6.69437e-18
8613.37783 7.83720e-18
8616.32430 7.62966e-18
8619.26075 6.69565e-18
8622.19719 6.34679e-18
8625.14366 6.28965e-18
8628.08011 6.50516e-18
8631.01655 6.19434e-18
8633.95300 6.33270e-18
8636.89947 6.58171e-18
8639.83591 6.29852e-18
8642.78238 5.75698e-18
8645.71883 5.24683e-18
8648.65527 5.13938e-18
8651.60174 5.45922e-18
8654.53819 5.43745e-18
8657.47463 5.37687e-18
8660.42110 5.70991e-18
8663.35755 5.62356e-18
8666.29399 5.63899e-18
8669.24046 5.96778e-18
8672.17691 6.25576e-18
8675.11335 6.34108e-18
8678.05982 6.28246e-18
8680.99627 6.14632e-18
8683.93271 5.75387e-18
8686.87918 5.47440e-18
8689.81563 5.89999e-18
8692.75207 5.84431e-18
8695.69854 4.99394e-18
8698.63499 4.64694e-18
8701.57143 4.78941e-18
8704.51790 4.80407e-18
8707.45435 5.00133e-18
8710.39079 5.34456e-18
8713.33726 5.54077e-18
8716.27371 5.72438e-18
8719.21015 5.86301e-18
8722.15662 5.74841e-18
8725.09307 5.57312e-18
8728.02951 5.48980e-18
8730.97598 5.40274e-18
8733.91243 5.26559e-18
8736.84887 5.44372e-18
8739.79534 5.68517e-18
8742.73179 5.09226e-18
8745.66823 4.72648e-18
8748.61470 4.43074e-18
8751.55115 4.16837e-18
8754.48759 4.24372e-18
8757.43406 4.26717e-18
8760.37051 3.91792e-18
8763.30695 3.64709e-18
8766.25342 3.65830e-18
8769.18987 3.85647e-18
8772.13634 4.46981e-18
8775.07278 4.58428e-18
8778.00923 4.42427e-18
8780.94567 4.43986e-18
8783.89214 4.39399e-18
8786.82859 4.81230e-18
8789.76503 5.21084e-18
8792.71150 4.58895e-18
8795.64795 4.11040e-18
8798.59442 4.14433e-18
8801.53086 4.12129e-18
8804.46731 2.78702e-18
8807.41378 2.60955e-18
8810.35022 3.37135e-18
8813.28667 2.99799e-18
8816.23314 2.68558e-18
8819.16958 3.25294e-18
8822.10603 3.38695e-18
8825.05250 3.63072e-18
8827.98894 3.84359e-18
8830.92539 3.56300e-18
8833.87186 3.77008e-18
8836.80830 4.06060e-18
8839.74475 4.29495e-18
8842.69122 4.52008e-18
8845.62766 4.44866e-18
8848.56411 4.55161e-18
8851.51058 4.75227e-18
8854.44702 4.73794e-18
8857.38347 4.43151e-18
8860.32994 4.31277e-18
8863.26638 4.01114e-18
8866.20283 3.93174e-18
8869.14930 3.88840e-18
8872.08574 3.65180e-18
8875.02219 3.55499e-18
8877.96866 3.12550e-18
8880.90510 2.88660e-18
8883.84155 2.94522e-18
8886.78802 3.32114e-18
8889.72446 3.55509e-18
8892.66091 3.68218e-18
8895.60738 3.94903e-18
8898.54382 4.11394e-18
8901.48027 3.92758e-18
8904.42674 3.68778e-18
8907.36318 4.07017e-18
8910.29963 3.86378e-18
8913.24610 4.01077e-18
8916.18254 3.97817e-18
8919.11899 3.56357e-18
8922.06546 3.44133e-18
8925.00190 3.17529e-18
8927.93835 3.35709e-18
8930.88482 2.75962e-18
8933.82126 2.40265e-18
