# wavelength flux
6022.53347 2.20392e-17
6024.42086 2.07187e-17
6026.31835 1.96160e-17
6028.21583 1.86572e-17
6030.11332 1.82437e-17
6032.01080 1.96967e-17
6033.90828 1.99005e-17
6035.80577 1.97278e-17
6037.70325 1.76531e-17
6039.60073 1.72687e-17
6041.49822 1.77709e-17
6043.39570 1.82170e-17
6045.29319 1.79160e-17
6047.19067 1.81207e-17
6049.08816 2.05175e-17
6050.98564 1.96990e-17
6052.87303 1.67601e-17
6054.77051 1.75221e-17
6056.66800 1.80248e-17
6058.56548 1.76374e-17
6060.46297 1.91381e-17
6062.36045 1.82692e-17
6064.25793 1.78560e-17
6066.15542 1.63052e-17
6068.05290 1.68677e-17
6069.95039 1.82159e-17
6071.84787 1.71837e-17
6073.74535 1.72615e-17
6075.64284 1.68022e-17
6077.54032 1.79137e-17
6079.43781 1.82729e-17
6081.33529 1.72152e-17
6083.22268 1.62216e-17
6085.12017 1.62259e-17
6087.01765 1.75373e-17
6088.91513 1.85566e-17
6090.81262 1.80340e-17
6092.71010 1.80036e-17
6094.60759 1.84991e-17
6096.50507 1.74932e-17
6098.40255 1.51219e-17
6100.30004 1.49410e-17
6102.19752 1.83880e-17
6104.09501 1.93223e-17
6105.99249 1.98286e-17
6107.88997 1.88227e-17
6109.78746 1.64623e-17
6111.67485 1.76306e-17
6113.57233 1.62801e-17
6115.46982 1.69007e-17
6117.36730 1.65928e-17
6119.26478 1.78092e-17
6121.16227 1.89247e-17
6123.05975 1.94736e-17
6124.95724 1.90540e-17
6126.85472 2.04806e-17
6128.75220 1.90566e-17
6130.64969 1.66460e-17
6132.54717 1.79389e-17
6134.44466 1.90179e-17
6136.34214 1.85312e-17
6138.23962 1.79497e-17
6140.13711 1.85342e-17
6142.02450 1.81319e-17
6143.92198 1.72128e-17
6145.81947 1.76154e-17
6147.71695 1.69844e-17
6149.61444 1.84779e-17
6151.51192 1.62840e-17
6153.40940 1.84550e-17
6155.30689 1.98765e-17
6157.20437 1.72096e-17
6159.10186 1.59800e-17
6160.99934 1.86386e-17
6162.89682 1.78740e-17
6164.79431 1.84944e-17
6166.69179 1.72092e-17
6168.58928 1.81573e-17
6170.47667 1.54569e-17
6172.37415 1.74774e-17
6174.27163 1.71129e-17
6176.16912 1.63885e-17
6178.06660 1.58066e-17
6179.96409 1.67155e-17
6181.86157 1.80878e-17
6183.75905 1.80434e-17
6185.65654 1.82408e-17
6187.55402 1.75652e-17
6189.45151 1.61275e-17
6191.34899 1.67294e-17
6193.24647 1.74993e-17
6195.14396 1.63660e-17
6197.04144 1.70484e-17
6198.93893 1.72119e-17
6200.82632 1.69937e-17
6202.72380 1.63310e-17
6204.62129 1.53702e-17
6206.51877 1.65628e-17
6208.41625 1.69159e-17
6210.31374 1.73405e-17
6212.21122 1.45893e-17
6214.10871 1.50652e-17
6216.00619 1.43809e-17
6217.90367 1.31037e-17
6219.80116 1.51280e-17
6221.69864 1.61540e-17
6223.59613 1.47871e-17
6225.49361 1.38071e-17
6227.39109 1.41734e-17
6229.28858 1.41515e-17
6231.17597 1.44141e-17
6233.07345 1.50814e-17
6234.97094 1.41882e-17
6236.86842 1.36568e-17
6238.76590 1.60730e-17
6240.66339 1.57253e-17
6242.56087 1.12708e-17
6244.45836 1.12973e-17
6246.35584 1.23272e-17
6248.25332 1.19297e-17
6250.15081 1.21600e-17
6252.04829 1.32858e-17
6253.94578 1.10231e-17
6255.84326 1.28603e-17
6257.74074 1.32302e-17
6259.62813 1.24942e-17
6261.52562 1.11595e-17
6263.42310 1.11606e-17
6265.32059 9.82209e-18
6267.21807 9.58832e-18
6269.11556 1.10175e-17
6271.01304 1.04547e-17
6272.91052 1.10497e-17
6274.80801 1.12827e-17
6276.70549 1.03362e-17
6278.60298 9.84380e-18
6280.50046 1.13920e-17
6282.39794 1.09308e-17
6284.29543 9.50214e-18
6286.19291 1.15452e-17
6288.09040 1.18059e-17
6289.97779 1.06790e-17
6291.87527 1.09229e-17
6293.77275 1.08604e-17
6295.67024 1.19612e-17
6297.56772 1.24993e-17
6299.46521 1.37477e-17
6301.36269 1.33228e-17
6303.26017 1.22220e-17
6305.15766 9.75477e-18
6307.05514 9.61401e-18
6308.95263 1.04004e-17
6310.85011 9.27384e-18
6312.74759 8.21647e-18
6314.64508 9.81750e-18
6316.54256 9.68825e-18
6318.42995 9.55931e-18
6320.32744 9.43080e-18
6322.22492 9.30266e-18
6324.12241 9.55325e-18
6326.01989 8.56388e-18
6327.91737 9.01812e-18
6329.81486 9.76834e-18
6331.71234 7.96152e-18
6333.60983 5.44739e-18
6335.50731 6.29068e-18
6337.40479 8.18219e-18
6339.30228 7.32895e-18
6341.19976 6.84661e-18
6343.09724 7.08681e-18
6344.99473 6.99571e-18
6346.89221 7.97699e-18
6348.77960 7.19149e-18
6350.67709 6.63075e-18
6352.57457 7.06899e-18
6354.47206 7.76961e-18
6356.36954 8.75770e-18
6358.26702 8.07823e-18
6360.16451 1.02154e-17
6362.06199 1.07430e-17
6363.95948 1.10184e-17
6365.85696 1.04860e-17
6367.75444 1.14383e-17
6369.65193 1.10858e-17
6371.54941 1.12796e-17
6373.44690 1.17117e-17
6375.34438 1.19322e-17
6377.23177 1.24905e-17
6379.12926 1.37349e-17
6381.02674 1.35693e-17
6382.92422 1.51043e-17
6384.82171 1.63299e-17
6386.71919 1.58298e-17
6388.61668 1.75520e-17
6390.51416 1.72925e-17
6392.41164 1.68799e-17
6394.30913 1.80961e-17
6396.20661 1.83311e-17
6398.10410 1.99958e-17
6400.00158 2.02746e-17
6401.89906 2.07905e-17
6403.79655 1.99772e-17
6405.69403 1.97212e-17
6407.58142 1.93813e-17
6409.47891 1.77806e-17
6411.37639 1.75850e-17
6413.27387 1.99459e-17
6415.17136 2.08496e-17
6417.06884 1.93402e-17
6418.96633 1.91268e-17
6420.86381 2.06428e-17
6422.76129 2.10529e-17
6424.65878 2.28970e-17
6426.55626 2.21755e-17
6428.45375 1.97820e-17
6430.35123 2.14285e-17
6432.24871 2.18149e-17
6434.14620 2.13126e-17
6436.03359 2.13802e-17
6437.93107 2.01009e-17
6439.82856 2.02959e-17
6441.72604 2.05889e-17
6443.62353 2.05462e-17
6445.52101 2.10936e-17
6447.41849 2.06292e-17
6449.31598 2.05932e-17
6451.21346 2.05495e-17
6453.11095 2.15336e-17
6455.00843 1.94344e-17
6456.90591 2.12803e-17
6458.80340 2.10989e-17
6460.70088 2.12426e-17
6462.59837 2.08193e-17
6464.49585 2.11803e-17
6466.38324 2.19309e-17
6468.28072 1.95487e-17
6470.17821 1.98699e-17
6472.07569 2.05335e-17
6473.97318 1.73214e-17
6475.87066 1.77821e-17
6477.76814 1.83383e-17
6479.66563 1.91382e-17
6481.56311 1.97969e-17
6483.46060 1.95450e-17
6485.35808 1.87566e-17
6487.25556 1.89434e-17
6489.15305 1.85443e-17
6491.05053 1.74494e-17
6492.94802 1.74836e-17
6494.83541 1.73950e-17
6496.73289 1.72242e-17
6498.63038 1.60504e-17
6500.52786 1.49452e-17
6502.42534 1.62403e-17
6504.32283 1.68491e-17
6506.22031 1.62680e-17
6508.11780 1.52769e-17
6510.01528 1.47773e-17
6511.91276 1.35844e-17
6513.81025 1.22523e-17
6515.70773 1.46927e-17
6517.60522 1.58211e-17
6519.50270 1.52548e-17
6521.40018 1.55768e-17
6523.29767 1.54176e-17
6525.18506 1.64296e-17
6527.08254 1.60619e-17
6528.98003 1.80536e-17
6530.87751 1.70176e-17
6532.77499 1.47767e-17
6534.67248 1.54259e-17
6536.56996 1.44465e-17
6538.46745 1.44839e-17
6540.36493 1.69719e-17
6542.26241 1.63250e-17
6544.15990 1.64416e-17
6546.05738 1.74520e-17
6547.95487 1.64886e-17
6549.85235 1.74702e-17
6551.74983 1.84099e-17
6553.63723 1.79598e-17
6555.53471 1.82597e-17
6557.43219 1.86503e-17
6559.32968 1.90482e-17
6561.22716 1.92209e-17
6563.12464 1.95797e-17
6565.02213 1.91788e-17
6566.91961 1.92635e-17
6568.81710 2.10927e-17
6570.71458 2.14466e-17
6572.61207 2.08811e-17
6574.50955 2.11027e-17
6576.40703 2.04772e-17
6578.30452 2.02289e-17
6580.20200 2.00442e-17
6582.09949 2.05534e-17
6583.98688 2.00325e-17
6585.88436 1.90276e-17
6587.78184 1.97867e-17
6589.67933 2.07109e-17
6591.57681 2.02882e-17
6593.47430 2.05484e-17
6595.37178 2.03602e-17
6597.26926 2.11674e-17
6599.16675 2.15097e-17
6601.06423 2.07324e-17
6602.96172 2.12252e-17
6604.85920 2.18823e-17
6606.75668 2.27856e-17
6608.65417 2.25233e-17
6610.55165 2.08744e-17
6612.43904 2.10210e-17
6614.33653 2.13427e-17
6616.23401 2.14864e-17
6618.13150 2.05546e-17
6620.02898 2.10399e-17
6621.92646 2.34481e-17
6623.82395 2.50296e-17
6625.72143 2.66171e-17
6627.61892 2.80830e-17
6629.51640 2.66466e-17
6631.41388 2.26256e-17
6633.31137 2.09620e-17
6635.20885 2.21946e-17
6637.10634 2.22323e-17
6639.00382 2.18283e-17
6640.90130 2.04404e-17
6642.78869 2.15157e-17
6644.68618 2.26923e-17
6646.58366 2.28451e-17
6648.48115 2.36327e-17
6650.37863 2.17472e-17
6652.27611 2.07368e-17
6654.17360 1.97332e-17
6656.07108 1.94616e-17
6657.96857 1.89010e-17
6659.86605 1.87617e-17
6661.76353 1.99332e-17
6663.66102 2.07755e-17
6665.55850 2.02090e-17
6667.45599 1.90668e-17
6669.35347 1.91412e-17
6671.24086 1.95860e-17
6673.13835 1.96570e-17
6675.03583 1.81495e-17
6676.93331 1.99500e-17
6678.83080 2.05639e-17
6680.72828 2.03928e-17
6682.62577 2.04709e-17
6684.52325 2.00504e-17
6686.42073 1.89216e-17
6688.31822 1.91441e-17
6690.21570 1.82234e-17
6692.11319 1.80759e-17
6694.01067 1.76626e-17
6695.90815 1.69616e-17
6697.80564 1.90061e-17
6699.69303 2.33861e-17
6701.59051 2.07064e-17
6703.48800 1.91729e-17
6705.38548 1.90088e-17
6707.28296 1.98919e-17
6709.18045 2.09076e-17
6711.07793 2.08457e-17
6712.97542 1.96666e-17
6714.87290 1.98210e-17
6716.77038 1.82555e-17
6718.66787 1.69296e-17
6720.56535 1.74291e-17
6722.46284 1.80474e-17
6724.36032 1.80839e-17
6726.25780 1.80924e-17
6728.15529 1.75429e-17
6730.04268 1.66955e-17
6731.94016 1.71496e-17
6733.83765 1.73509e-17
6735.73513 1.75521e-17
6737.63262 1.77530e-17
6739.53010 1.79537e-17
6741.42758 1.81542e-17
6743.32507 1.83546e-17
6745.22255 1.85548e-17
6747.12004 1.87549e-17
6749.01752 1.73582e-17
6750.91500 1.79418e-17
6752.81249 1.76233e-17
6754.70997 1.84272e-17
6756.60746 1.87974e-17
6758.49485 1.83329e-17
6760.39233 1.88128e-17
6762.28981 1.81252e-17
6764.18730 1.76559e-17
6766.08478 1.91727e-17
6767.98227 1.93065e-17
6769.87975 1.82380e-17
6771.77723 1.80288e-17
6773.67472 1.85598e-17
6775.57220 1.82262e-17
6777.46969 1.74053e-17
6779.36717 1.88422e-17
6781.26465 2.04839e-17
6783.16214 2.10936e-17
6785.05962 2.06275e-17
6786.95711 1.87262e-17
6788.84450 1.86134e-17
6790.74198 1.85874e-17
6792.63947 1.79283e-17
6794.53695 2.00910e-17
6796.43443 2.11005e-17
6798.33192 2.02786e-17
6800.22940 1.95565e-17
6802.12689 1.77881e-17
6804.02437 1.70352e-17
6805.92185 1.68534e-17
6807.81934 1.75991e-17
6809.71682 1.82736e-17
6811.61431 1.69426e-17
6813.51179 1.82548e-17
6815.40927 1.73451e-17
6817.29666 1.86632e-17
6819.19415 1.88923e-17
6821.09163 1.82867e-17
6822.98912 1.79822e-17
6824.88660 1.78948e-17
6826.78408 1.73979e-17
6828.68157 1.74246e-17
6830.57905 1.79699e-17
6832.47654 1.66560e-17
6834.37402 1.66583e-17
6836.27150 1.68207e-17
6838.16899 1.69345e-17
6840.06647 1.75572e-17
6841.96396 1.72945e-17
6843.86144 1.69274e-17
6845.75892 1.69000e-17
6847.64632 1.68726e-17
6849.54380 1.68452e-17
6851.44128 1.68178e-17
6853.33877 1.67904e-17
6855.23625 1.67630e-17
6857.13374 1.67356e-17
6859.03122 1.67082e-17
6860.92870 1.66808e-17
6862.82619 1.66534e-17
6864.72367 1.66260e-17
6866.62116 1.65987e-17
6868.51864 1.65713e-17
6870.41612 1.65439e-17
6872.31361 1.65165e-17
6874.21109 1.64891e-17
6876.09848 1.64618e-17
6877.99597 1.64344e-17
6879.89345 1.64070e-17
6881.79093 1.63797e-17
6883.68842 1.63523e-17
6885.58590 1.63250e-17
6887.48339 1.62976e-17
6889.38087 1.62702e-17
6891.27835 1.62429e-17
6893.17584 1.62155e-17
6895.07332 1.61882e-17
6896.97081 1.61608e-17
6898.86829 1.61335e-17
6900.76577 1.61062e-17
6902.66326 1.60788e-17
6904.56074 1.60515e-17
6906.44813 1.60241e-17
6908.34562 1.59968e-17
6910.24310 1.59695e-17
6912.14059 1.59422e-17
6914.03807 1.59148e-17
6915.93555 1.58875e-17
6917.83304 1.58602e-17
6919.73052 1.58329e-17
6921.62801 1.58055e-17
6923.52549 1.57782e-17
6925.42297 1.57509e-17
6927.32046 1.57236e-17
6929.21794 1.56963e-17
6931.11543 1.56690e-17
6933.01291 1.56417e-17
6934.90030 1.56144e-17
6936.79778 1.74196e-17
6938.69527 1.65220e-17
6940.59275 1.64234e-17
6942.49024 1.67409e-17
6944.38772 1.81230e-17
6946.28520 1.75955e-17
6948.18269 1.71786e-17
6950.08017 1.80584e-17
6951.97766 1.94267e-17
6953.87514 1.75918e-17
6955.77262 1.71822e-17
6957.67011 1.74482e-17
6959.56759 1.73568e-17
6961.46508 1.72654e-17
6963.36256 1.71742e-17
6965.24995 1.70830e-17
6967.14744 1.69919e-17
6969.04492 1.69008e-17
6970.94240 1.68099e-17
6972.83989 1.67190e-17
6974.73737 1.66281e-17
6976.63486 1.66951e-17
6978.53234 1.78275e-17
6980.42982 1.95128e-17
6982.32731 1.81182e-17
6984.22479 1.80772e-17
6986.12228 1.72489e-17
6988.01976 1.78691e-17
6989.91724 1.98250e-17
6991.81473 1.99043e-17
6993.70212 1.86226e-17
6995.59960 1.77680e-17
6997.49709 1.81082e-17
6999.39457 1.80294e-17
7001.29205 1.75866e-17
7003.18954 1.76611e-17
7005.08702 1.77073e-17
7006.98451 1.69223e-17
7008.88199 1.66211e-17
7010.77947 1.65995e-17
7012.67696 1.70306e-17
7014.57444 1.85542e-17
7016.47193 1.66432e-17
7018.36941 1.65809e-17
7020.26689 1.65186e-17
7022.16438 1.64563e-17
7024.05177 1.63941e-17
7025.94925 1.63321e-17
7027.84674 1.62699e-17
7029.74422 1.62079e-17
7031.64171 1.61460e-17
7033.53919 1.60839e-17
7035.43667 1.60220e-17
7037.33416 1.59602e-17
7039.23164 1.58984e-17
7041.12913 1.58366e-17
7043.02661 1.57749e-17
7044.92409 1.57132e-17
7046.82158 1.56515e-17
7048.71906 1.55901e-17
7050.61654 1.55285e-17
7052.50394 1.54670e-17
7054.40142 1.54056e-17
7056.29890 1.53441e-17
7058.19639 1.52828e-17
7060.09387 1.52215e-17
7061.99136 1.51602e-17
7063.88884 1.50990e-17
7065.78632 1.50378e-17
7067.68381 1.49767e-17
7069.58129 1.49156e-17
7071.47878 1.48546e-17
7073.37626 1.47937e-17
7075.27374 1.47851e-17
7077.17123 1.46356e-17
7079.06871 1.44689e-17
7080.96620 1.52408e-17
7082.85359 1.58132e-17
7084.75107 1.61914e-17
7086.64856 1.54063e-17
7088.54604 1.35554e-17
7090.44352 1.38742e-17
7092.34101 1.47296e-17
7094.23849 1.19913e-17
7096.13598 1.23794e-17
7098.03346 1.38756e-17
7099.93094 1.34424e-17
7101.82843 1.37924e-17
7103.72591 1.35747e-17
7105.62340 1.44349e-17
7107.52088 1.44548e-17
7109.41836 1.31280e-17
7111.30575 1.39840e-17
7113.20324 1.27627e-17
7115.10072 1.27795e-17
7116.99821 1.26212e-17
7118.89569 1.36430e-17
7120.79317 1.25816e-17
7122.69066 1.15485e-17
7124.58814 1.28687e-17
7126.48563 1.38264e-17
7128.38311 1.10710e-17
7130.28059 1.28592e-17
7132.17808 1.36845e-17
7134.07556 1.31755e-17
7135.97305 1.27323e-17
7137.87053 1.34072e-17
7139.76801 1.25366e-17
7141.65541 1.35924e-17
7143.55289 1.27954e-17
7145.45037 1.15118e-17
7147.34786 1.36026e-17
7149.24534 1.37786e-17
7151.14283 1.29623e-17
7153.04031 1.34280e-17
7154.93779 1.36340e-17
7156.83528 1.39642e-17
7158.73276 1.45456e-17
7160.63025 1.36377e-17
7162.52773 1.20405e-17
7164.42521 1.33130e-17
7166.32270 1.50291e-17
7168.22018 1.44287e-17
7170.10757 1.40974e-17
7172.00506 1.26946e-17
7173.90254 1.26669e-17
7175.80002 1.45952e-17
7177.69751 1.38993e-17
7179.59499 1.28712e-17
7181.49248 1.40200e-17
7183.38996 1.52021e-17
7185.28744 1.34047e-17
7187.18493 1.28796e-17
7189.08241 1.38990e-17
7190.97990 1.40828e-17
7192.87738 1.37371e-17
7194.77486 1.44149e-17
7196.67235 1.42568e-17
7198.56983 1.29057e-17
7200.45722 1.36143e-17
7202.35471 1.18760e-17
7204.25219 1.34250e-17
7206.14968 1.36563e-17
7208.04716 1.30385e-17
7209.94464 1.43497e-17
7211.84213 1.33945e-17
7213.73961 1.52217e-17
7215.63710 1.46670e-17
7217.53458 1.35946e-17
7219.43206 1.42491e-17
7221.32955 1.37299e-17
7223.22703 1.43029e-17
7225.12452 1.43233e-17
7227.02200 1.39386e-17
7228.90939 1.36703e-17
7230.80687 1.55733e-17
7232.70436 1.30599e-17
7234.60184 1.27818e-17
7236.49933 1.47338e-17
7238.39681 1.42171e-17
7240.29429 1.40896e-17
7242.19178 1.29980e-17
7244.08926 1.36047e-17
7245.98675 1.37602e-17
7247.88423 1.13967e-17
7249.78171 1.15908e-17
7251.67920 1.26979e-17
7253.57668 1.22416e-17
7255.47417 1.41384e-17
7257.37165 1.48010e-17
7259.25904 1.41231e-17
7261.15653 1.32293e-17
7263.05401 1.33879e-17
7264.95149 1.25168e-17
7266.84898 1.21071e-17
7268.74646 1.26233e-17
7270.64394 1.34983e-17
7272.54143 1.40191e-17
7274.43891 1.35736e-17
7276.33640 1.46079e-17
7278.23388 1.26503e-17
7280.13137 1.14225e-17
7282.02885 1.37166e-17
7283.92633 1.40567e-17
7285.82382 1.31698e-17
7287.71121 1.14662e-17
7289.60869 1.24003e-17
7291.50618 1.32869e-17
7293.40366 1.37272e-17
7295.30114 1.24088e-17
7297.19863 1.23805e-17
7299.09611 1.37963e-17
7300.99360 1.31682e-17
7302.89108 1.26801e-17
7304.78856 1.26801e-17
7306.68605 1.28948e-17
7308.58353 1.24885e-17
7310.48102 1.27890e-17
7312.37850 1.17589e-17
7314.27598 1.13074e-17
7316.17347 1.15268e-17
7318.06086 1.20670e-17
7319.95834 1.25323e-17
7321.85583 1.16327e-17
7323.75331 1.23447e-17
7325.65080 1.28263e-17
7327.54828 1.23215e-17
7329.44576 1.18375e-17
7331.34325 1.24094e-17
7333.24073 1.16422e-17
7335.13822 1.38402e-17
7337.03570 1.52774e-17
7338.93318 1.40482e-17
7340.83067 1.32862e-17
7342.72815 1.09089e-17
7344.62564 1.10450e-17
7346.52312 1.31551e-17
7348.41051 1.30129e-17
7350.30799 1.19870e-17
7352.20548 1.24299e-17
7354.10296 1.21634e-17
7356.00045 1.25210e-17
7357.89793 1.28992e-17
7359.79541 1.21846e-17
7361.69290 1.20883e-17
7363.59038 1.12912e-17
7365.48787 1.21744e-17
7367.38535 1.28504e-17
7369.28283 1.28918e-17
7371.18032 1.00962e-17
7373.07780 9.95104e-18
7374.97529 1.14201e-17
7376.86268 1.05350e-17
7378.76016 1.12505e-17
7380.65765 1.16514e-17
7382.55513 1.15553e-17
7384.45261 1.20799e-17
7386.35010 1.21472e-17
7388.24758 1.26709e-17
7390.14507 1.30797e-17
7392.04255 1.22532e-17
7393.94003 1.20625e-17
7395.83752 1.19580e-17
7397.73500 1.15278e-17
7399.63249 1.07511e-17
7401.52997 1.05301e-17
7403.42745 1.19021e-17
7405.31484 1.11481e-17
7407.21233 1.05000e-17
7409.10981 1.16084e-17
7411.00730 1.14318e-17
7412.90478 1.12883e-17
7414.80226 1.03964e-17
7416.69975 1.02884e-17
7418.59723 1.01806e-17
7420.49472 1.00728e-17
7422.39220 9.96507e-18
7424.28968 9.85743e-18
7426.18717 1.03143e-17
7428.08465 1.12780e-17
7429.98214 1.14810e-17
7431.87962 1.05186e-17
7433.77710 1.03401e-17
7435.66449 1.20875e-17
7437.56198 1.26131e-17
7439.45946 9.76750e-18
7441.35695 1.04270e-17
7443.25443 1.19496e-17
7445.15192 1.18278e-17
7447.04940 1.09431e-17
7448.94688 1.11903e-17
7450.84437 1.07142e-17
7452.74185 1.07439e-17
7454.63934 1.09341e-17
7456.53682 1.12061e-17
7458.43430 1.00679e-17
7460.33179 1.17072e-17
7462.22927 1.15646e-17
7464.12676 1.08162e-17
7466.01415 9.90148e-18
7467.91163 1.10945e-17
7469.80911 1.13593e-17
7471.70660 1.01299e-17
7473.60408 1.12057e-17
7475.50157 1.18450e-17
7477.39905 1.25297e-17
7479.29653 1.26882e-17
7481.19402 1.13797e-17
7483.09150 1.12094e-17
7484.98899 1.09955e-17
7486.88647 9.87973e-18
7488.78395 9.52697e-18
7490.68144 1.08471e-17
7492.57892 1.22776e-17
7494.46631 1.29436e-17
7496.36380 1.15616e-17
7498.26128 1.15140e-17
7500.15877 1.06815e-17
7502.05625 1.06367e-17
7503.95373 1.08139e-17
7505.85122 1.14988e-17
7507.74870 1.00478e-17
7509.64619 1.17935e-17
7511.54367 1.13314e-17
7513.44115 1.03696e-17
7515.33864 1.15395e-17
7517.23612 1.01350e-17
7519.13361 1.10317e-17
7521.03109 1.30331e-17
7522.91848 1.18865e-17
7524.81596 1.19568e-17
7526.71345 1.08915e-17
7528.61093 1.19699e-17
7530.50842 1.12079e-17
7532.40590 9.92456e-18
7534.30338 9.74003e-18
7536.20087 1.12104e-17
7538.09835 1.02369e-17
7539.99584 1.01416e-17
7541.89332 1.12961e-17
7543.79080 1.09874e-17
7545.68829 9.79460e-18
7547.58577 1.03142e-17
7549.48326 1.10274e-17
7551.38074 1.10030e-17
7553.26813 1.09785e-17
7555.16562 1.09540e-17
7557.06310 1.09296e-17
7558.96058 1.09051e-17
7560.85807 1.08806e-17
7562.75555 1.08562e-17
7564.65304 1.08317e-17
7566.55052 1.08073e-17
7568.44800 1.07828e-17
7570.34549 1.07583e-17
7572.24297 1.07339e-17
7574.14046 1.07094e-17
7576.03794 1.06850e-17
7577.93542 1.06606e-17
7579.83291 1.06361e-17
7581.73039 1.06117e-17
7583.61778 1.05872e-17
7585.51527 1.05628e-17
7587.41275 1.05384e-17
7589.31023 1.05139e-17
7591.20772 1.04895e-17
7593.10520 1.04651e-17
7595.00269 1.04407e-17
7596.90017 1.04162e-17
7598.79765 1.03918e-17
7600.69514 1.03674e-17
7602.59262 1.03430e-17
7604.49011 1.03186e-17
7606.38759 1.02942e-17
7608.28507 1.02698e-17
7610.18256 1.02454e-17
7612.06995 1.02210e-17
7613.96743 1.01966e-17
7615.86492 1.01722e-17
7617.76240 1.01478e-17
7619.65989 1.01234e-17
7621.55737 1.00990e-17
7623.45485 1.00746e-17
7625.35234 1.00502e-17
7627.24982 1.00258e-17
7629.14731 1.00014e-17
7631.04479 9.97704e-18
7632.94227 9.95266e-18
7634.83976 9.92828e-18
7636.73724 9.90391e-18
7638.63473 9.87954e-18
7640.52212 9.85517e-18
7642.41960 9.83080e-18
7644.31708 9.80643e-18
7646.21457 9.78206e-18
7648.11205 9.75771e-18
7650.00954 9.73334e-18
7651.90702 9.70899e-18
7653.80450 9.68463e-18
7655.70199 9.66028e-18
7657.59947 9.63593e-18
7659.49696 9.61158e-18
7661.39444 9.58723e-18
7663.29192 9.56289e-18
7665.18941 9.53855e-18
7667.08689 9.51421e-18
7668.98438 9.48987e-18
7670.87177 9.46553e-18
7672.76925 9.44120e-18
7674.66674 9.41687e-18
7676.56422 9.39255e-18
7678.46170 9.36822e-18
7680.35919 9.34389e-18
7682.25667 9.38506e-18
7684.15416 9.75741e-18
7686.05164 1.13495e-17
7687.94912 1.07164e-17
7689.84661 9.72425e-18
7691.74409 1.03297e-17
7693.64158 9.27527e-18
7695.53906 9.57990e-18
7697.43654 1.10083e-17
7699.33403 1.01000e-17
7701.22142 9.43992e-18
7703.11890 9.60469e-18
7705.01639 9.10998e-18
7706.91387 9.30760e-18
7708.81135 9.50521e-18
7710.70884 9.70273e-18
7712.60632 9.90023e-18
7714.50381 1.00977e-17
7716.40129 1.02952e-17
7718.29877 1.04926e-17
7720.19626 9.92817e-18
7722.09374 9.26530e-18
7723.99123 9.50110e-18
7725.88871 9.83170e-18
7727.78619 1.02345e-17
7729.67359 1.08135e-17
7731.57107 1.04217e-17
7733.46855 1.00798e-17
7735.36604 1.02542e-17
7737.26352 1.04307e-17
7739.16101 1.00630e-17
7741.05849 1.05169e-17
7742.95597 9.68508e-18
7744.85346 9.43060e-18
7746.75094 1.06554e-17
7748.64843 1.02796e-17
7750.54591 1.05702e-17
7752.44339 9.36007e-18
7754.34088 8.03117e-18
7756.23836 9.04190e-18
7758.13585 1.04907e-17
7760.02324 1.15619e-17
7761.92072 1.10955e-17
7763.81820 9.26059e-18
7765.71569 9.31996e-18
7767.61317 1.13552e-17
7769.51066 1.06845e-17
7771.40814 9.90417e-18
7773.30562 9.78341e-18
7775.20311 1.04118e-17
7777.10059 1.01826e-17
7778.99808 1.00689e-17
7780.89556 9.41434e-18
7782.79304 9.14109e-18
7784.69053 9.15446e-18
7786.58801 9.54530e-18
7788.47540 1.10121e-17
7790.37289 1.08647e-17
7792.27037 1.29358e-17
7794.16786 1.29208e-17
7796.06534 1.13161e-17
7797.96282 1.00917e-17
7799.86031 1.15274e-17
7801.75779 1.11442e-17
7803.65528 1.12563e-17
7805.55276 1.11552e-17
7807.45024 9.60749e-18
7809.34773 1.06107e-17
7811.24521 1.04346e-17
7813.14270 8.80248e-18
7815.04018 1.04518e-17
7816.93766 1.15768e-17
7818.82505 1.31077e-17
7820.72254 1.20863e-17
7822.62002 1.32460e-17
7824.51751 1.20441e-17
7826.41499 8.37871e-18
7828.31247 8.90166e-18
7830.20996 9.17655e-18
7832.10744 9.28790e-18
7834.00493 1.09300e-17
7835.90241 1.11195e-17
7837.79989 1.08820e-17
7839.69738 1.06581e-17
7841.59486 9.79736e-18
7843.49235 9.56326e-18
7845.38983 8.98888e-18
7847.27722 1.05419e-17
7849.17471 1.06542e-17
7851.07219 9.95955e-18
7852.96967 1.11587e-17
7854.86716 1.18180e-17
7856.76464 1.21151e-17
7858.66213 9.21363e-18
7860.55961 9.78745e-18
7862.45709 9.78262e-18
7864.35458 9.60482e-18
7866.25206 9.72157e-18
7868.14955 1.00442e-17
7870.04703 1.21678e-17
7871.94451 1.08129e-17
7873.84200 9.36874e-18
7875.73948 7.70352e-18
7877.62687 1.05995e-17
7879.52436 9.44699e-18
7881.42184 5.94011e-18
7883.31932 7.00934e-18
7885.21681 1.05379e-17
7887.11429 1.13004e-17
7889.01178 1.31044e-17
7890.90926 1.27194e-17
7892.80674 1.15709e-17
7894.70423 1.17308e-17
7896.60171 1.12733e-17
7898.49920 1.10966e-17
7900.39668 1.22206e-17
7902.29416 1.17887e-17
7904.19165 1.12872e-17
7906.07904 9.32370e-18
7907.97652 1.06513e-17
7909.87401 1.01181e-17
7911.77149 1.11654e-17
7913.66898 9.50815e-18
7915.56646 9.83628e-18
7917.46394 9.27716e-18
7919.36143 1.00465e-17
7921.25891 1.06158e-17
7923.15639 1.13904e-17
7925.05388 9.86496e-18
7926.95136 1.00587e-17
7928.84885 1.06310e-17
7930.74633 1.05591e-17
7932.64382 1.15550e-17
7934.54130 1.20579e-17
7936.42869 1.02516e-17
7938.32617 9.47424e-18
7940.22366 1.07718e-17
7942.12114 1.16377e-17
7944.01863 1.03656e-17
7945.91611 1.02594e-17
7947.81359 1.24012e-17
7949.71108 1.21934e-17
7951.60856 1.10093e-17
7953.50605 9.59218e-18
7955.40353 8.62213e-18
7957.30101 8.72653e-18
7959.19850 9.58117e-18
7961.09598 1.10958e-17
7962.99347 1.22352e-17
7964.88086 1.11028e-17
7966.77834 1.20715e-17
7968.67583 9.37495e-18
7970.57331 8.38121e-18
7972.47079 1.03407e-17
7974.36828 9.75428e-18
7976.26576 9.27603e-18
7978.16325 9.35817e-18
7980.06073 9.88856e-18
7981.95821 1.01185e-17
7983.85570 9.68457e-18
7985.75318 8.98570e-18
7987.65067 8.51436e-18
7989.54815 1.02851e-17
7991.44563 1.23941e-17
7993.34312 1.20970e-17
7995.23051 1.15033e-17
7997.12799 1.16039e-17
7999.02548 1.08916e-17
8000.92296 8.57709e-18
8002.82044 9.84810e-18
8004.71793 1.07322e-17
8006.61541 9.64689e-18
8008.51290 1.01029e-17
8010.41038 1.14758e-17
8012.30786 1.04600e-17
8014.20535 1.04843e-17
8016.10283 1.01172e-17
8018.00032 7.33068e-18
8019.89780 7.48866e-18
8021.79528 1.01674e-17
8023.68268 1.16311e-17
8025.58016 1.22197e-17
8027.47764 1.00452e-17
8029.37513 8.62772e-18
8031.27261 7.88733e-18
8033.17010 9.87763e-18
8035.06758 9.22950e-18
8036.96506 1.00691e-17
8038.86255 1.00047e-17
8040.76003 1.00780e-17
8042.65752 8.99347e-18
8044.55500 9.25146e-18
8046.45248 9.54922e-18
8048.34997 9.55420e-18
8050.24745 9.55922e-18
8052.14494 9.56430e-18
8054.03233 9.56937e-18
8055.92981 9.57447e-18
8057.82729 9.57966e-18
8059.72478 9.58485e-18
8061.62226 9.59000e-18
8063.51975 9.59526e-18
8065.41723 9.60049e-18
8067.31471 9.60580e-18
8069.21220 9.61111e-18
8071.10968 9.61643e-18
8073.00717 9.62178e-18
8074.90465 9.62717e-18
8076.80213 9.63264e-18
8078.69962 9.63803e-18
8080.59710 9.64347e-18
8082.49459 9.64901e-18
8084.38198 9.65453e-18
8086.27946 9.66005e-18
8088.17695 9.66564e-18
8090.07443 9.67123e-18
8091.97191 9.67687e-18
8093.86940 1.34438e-17
8095.76688 9.85822e-18
8097.66437 9.10389e-18
8099.56185 9.24756e-18
8101.45933 1.10404e-17
8103.35682 1.05312e-17
8105.25430 9.78487e-18
8107.15179 1.00774e-17
8109.04927 1.00643e-17
8110.94675 1.06676e-17
8112.83414 1.12512e-17
8114.73163 1.06213e-17
8116.62911 1.04016e-17
8118.52660 1.04921e-17
8120.42408 8.96651e-18
8122.32156 8.72615e-18
8124.21905 9.13329e-18
8126.11653 9.61042e-18
8128.01402 9.90491e-18
8129.91150 1.02966e-17
8131.80898 9.75465e-18
8133.70647 9.17900e-18
8135.60395 1.04967e-17
8137.50144 1.04684e-17
8139.39892 9.29598e-18
8141.28631 8.70559e-18
8143.18379 8.10486e-18
8145.08128 8.19874e-18
8146.97876 9.16653e-18
8148.87625 8.67012e-18
8150.77373 8.32116e-18
8152.67122 8.81747e-18
8154.56870 9.11207e-18
8156.46618 8.62273e-18
8158.36367 8.20652e-18
8160.26115 9.61250e-18
8162.15864 9.40413e-18
8164.05612 8.08017e-18
8165.95360 6.92742e-18
8167.85109 7.95963e-18
8169.74857 7.96775e-18
8171.63596 7.79856e-18
8173.53345 9.40299e-18
8175.43093 9.64198e-18
8177.32841 9.28960e-18
8179.22590 8.25492e-18
8181.12338 9.22099e-18
8183.02087 8.55099e-18
8184.91835 8.61465e-18
8186.81583 7.83070e-18
8188.71332 7.82849e-18
8190.61080 8.73412e-18
8192.50829 7.95571e-18
8194.40577 8.98376e-18
8196.30325 8.27111e-18
8198.20074 7.58812e-18
8200.09822 7.29353e-18
8201.98561 7.93403e-18
8203.88310 8.56241e-18
8205.78058 9.21468e-18
8207.67807 8.84770e-18
8209.57555 1.02155e-17
8211.47303 1.02281e-17
8213.37052 8.47314e-18
8215.26800 8.31886e-18
8217.16549 6.76251e-18
8219.06297 7.31642e-18
8220.96045 8.40010e-18
8222.85794 7.65193e-18
8224.75542 8.44801e-18
8226.65291 7.84982e-18
8228.55039 7.91167e-18
8230.43778 8.62266e-18
8232.33526 9.36598e-18
8234.23275 8.44985e-18
8236.13023 7.12095e-18
8238.02772 7.95564e-18
8239.92520 8.28093e-18
8241.82268 8.09531e-18
8243.72017 7.61499e-18
8245.61765 8.30053e-18
8247.51514 9.00176e-18
8249.41262 9.08033e-18
8251.31010 1.02391e-17
8253.20759 1.01115e-17
8255.10507 8.84043e-18
8257.00256 7.16633e-18
8258.88995 7.17618e-18
8260.78743 7.97560e-18
8262.68492 8.21270e-18
8264.58240 7.89545e-18
8266.47988 7.92527e-18
8268.37737 7.51707e-18
8270.27485 8.69776e-18
8272.17234 9.23904e-18
8274.06982 8.29481e-18
8275.96730 8.27282e-18
8277.86479 9.62135e-18
8279.76227 1.01440e-17
8281.65976 7.66249e-18
8283.55724 5.79072e-18
8285.45472 5.55467e-18
8287.35221 5.68129e-18
8289.23960 6.19240e-18
8291.13708 7.16126e-18
8293.03457 7.80278e-18
8294.93205 9.78162e-18
8296.82953 1.10351e-17
8298.72702 7.78047e-18
8300.62450 5.14430e-18
8302.52199 4.24319e-18
8304.41947 5.46290e-18
8306.31695 6.45139e-18
8308.21444 4.99546e-18
8310.11192 5.24742e-18
8312.00941 6.79075e-18
8313.90689 8.01057e-18
8315.80437 8.89912e-18
8317.69176 7.86209e-18
8319.58925 8.18217e-18
8321.48673 8.14235e-18
8323.38422 7.20667e-18
8325.28170 8.34721e-18
8327.17919 7.97723e-18
8329.07667 5.32916e-18
8330.97415 4.93017e-18
8332.87164 6.94482e-18
8334.76912 6.90443e-18
8336.66661 5.87246e-18
8338.56409 5.12149e-18
8340.46157 4.76244e-18
8342.35906 5.31988e-18
8344.25654 7.48832e-18
8346.15402 6.79008e-18
8348.04142 8.52056e-18
8349.93890 6.91172e-18
8351.83638 7.86668e-18
8353.73387 7.30418e-18
8355.63135 7.49024e-18
8357.52884 8.19334e-18
8359.42632 7.42935e-18
8361.32380 7.55421e-18
8363.22129 8.33650e-18
8365.11877 6.06533e-18
8367.01626 6.69789e-18
8368.91374 7.50459e-18
8370.81122 7.35193e-18
8372.70871 7.45450e-18
8374.60619 8.31904e-18
8376.50368 8.66812e-18
8378.39107 7.59739e-18
8380.28855 8.21673e-18
8382.18604 9.28510e-18
8384.08352 7.82473e-18
8385.98100 7.31538e-18
8387.87849 8.21796e-18
8389.77597 7.82292e-18
8391.67346 8.73380e-18
8393.57094 7.80992e-18
8395.46842 7.44350e-18
8397.36591 6.64012e-18
8399.26339 6.39584e-18
8401.16088 5.35729e-18
8403.05836 9.09591e-18
8404.95584 9.32448e-18
8406.84323 7.73348e-18
8408.74072 9.55755e-18
8410.63820 9.39089e-18
8412.53569 1.07878e-17
8414.43317 9.09554e-18
8416.33065 1.16713e-17
8418.22814 9.86016e-18
8420.12562 9.32204e-18
8422.02311 9.68167e-18
8423.92059 1.08934e-17
8425.81807 9.31367e-18
8427.71556 6.34771e-18
8429.61304 5.99058e-18
8431.51053 5.03344e-18
8433.40801 6.66550e-18
8435.30549 1.03168e-17
8437.19289 7.74271e-18
8439.09037 8.51069e-18
8440.98785 1.07396e-17
8442.88534 1.01924e-17
8444.78282 9.78267e-18
8446.68031 8.60918e-18
8448.57779 8.17690e-18
8450.47527 8.69038e-18
8452.37276 8.14940e-18
8454.27024 8.55646e-18
8456.16773 9.86531e-18
8458.06521 1.05087e-17
8459.96269 1.05743e-17
8461.86018 1.32565e-17
8463.75766 1.39414e-17
8465.64505 9.95861e-18
8467.54254 6.31108e-18
8469.44002 9.76110e-18
8471.33750 6.63730e-18
8473.23499 6.52248e-18
8475.13247 6.71292e-18
8477.02996 7.25145e-18
8478.92744 7.04193e-18
8480.82492 6.95277e-18
8482.72241 6.49559e-18
8484.61989 7.05467e-18
8486.51738 8.54036e-18
8488.41486 8.06197e-18
8490.31234 8.69913e-18
8492.20983 8.71984e-18
8494.09722 8.37386e-18
8495.99470 8.47022e-18
8497.89219 8.11965e-18
8499.78967 7.20668e-18
8501.68716 7.62403e-18
8503.58464 8.29486e-18
8505.48212 7.13366e-18
8507.37961 5.08893e-18
8509.27709 5.74071e-18
8511.17458 8.39922e-18
8513.07206 8.74182e-18
8514.96954 8.64086e-18
8516.86703 6.99681e-18
8518.76451 7.86348e-18
8520.66200 8.62277e-18
8522.55948 7.38943e-18
8524.44687 7.34532e-18
8526.34435 9.38283e-18
8528.24184 9.19211e-18
8530.13932 8.27172e-18
8532.03681 1.04293e-17
8533.93429 1.15292e-17
8535.83177 1.23291e-17
8537.72926 1.13345e-17
8539.62674 1.00407e-17
8541.52423 1.01886e-17
8543.42171 9.71106e-18
8545.31919 9.47957e-18
8547.21668 9.38256e-18
8549.11416 9.46351e-18
8551.01165 9.25512e-18
8552.89904 9.85072e-18
8554.79652 1.12933e-17
8556.69401 1.15103e-17
8558.59149 9.54997e-18
8560.48897 8.41044e-18
8562.38646 7.83128e-18
8564.28394 8.64897e-18
8566.18143 1.09005e-17
8568.07891 1.15138e-17
8569.97639 1.09833e-17
8571.87388 1.00299e-17
8573.77136 8.49995e-18
8575.66885 8.62281e-18
8577.56633 8.09624e-18
8579.46381 7.39159e-18
8581.36130 8.81050e-18
8583.25878 1.06843e-17
8585.14617 1.17204e-17
8587.04366 1.19104e-17
8588.94114 1.05303e-17
8590.83862 9.57387e-18
8592.73611 9.07971e-18
8594.63359 9.01263e-18
8596.53108 7.91612e-18
8598.42856 9.56515e-18
8600.32604 9.86902e-18
8602.22353 1.08897e-17
8604.12101 1.08911e-17
8606.01850 1.20476e-17
8607.91598 1.09930e-17
8609.81346 1.05812e-17
8611.71095 8.83975e-18
8613.59834 8.53470e-18
8615.49582 7.73637e-18
8617.39331 7.95849e-18
8619.29079 8.85712e-18
8621.18828 1.11778e-17
8623.08576 1.14912e-17
8624.98324 1.16849e-17
8626.88073 1.04790e-17
8628.77821 8.74000e-18
8630.67569 7.48579e-18
8632.57318 7.19245e-18
8634.47066 7.66933e-18
8636.36815 7.39156e-18
8638.26563 7.93838e-18
8640.16311 8.46223e-18
8642.05051 1.04190e-17
8643.94799 1.09321e-17
8645.84547 1.12422e-17
8647.74296 1.01332e-17
8649.64044 8.54784e-18
8651.53793 9.09932e-18
8653.43541 5.96493e-18
8655.33289 6.46137e-18
8657.23038 5.45728e-18
8659.12786 6.61679e-18
8661.02535 8.65633e-18
8662.92283 1.09112e-17
8664.82031 1.26323e-17
8666.71780 1.17524e-17
8668.61528 1.05976e-17
8670.51277 1.04710e-17
8672.40016 9.37060e-18
8674.29764 7.24803e-18
8676.19513 8.17953e-18
8678.09261 7.69636e-18
8679.99009 8.40603e-18
8681.88758 7.24610e-18
8683.78506 7.77072e-18
8685.68254 9.26811e-18
8687.58003 1.08215e-17
8689.47751 1.04863e-17
8691.37500 9.31192e-18
8693.27248 9.78998e-18
8695.16996 8.94759e-18
8697.06745 8.08583e-18
8698.96493 8.74354e-18
8700.85232 8.29569e-18
8702.74981 7.82317e-18
8704.64729 7.76034e-18
8706.54478 9.03906e-18
8708.44226 1.01754e-17
8710.33974 1.06714e-17
8712.23723 8.87577e-18
8714.13471 9.44634e-18
8716.03220 9.77731e-18
8717.92968 1.03151e-17
8719.82716 1.13535e-17
8721.72465 1.04908e-17
8723.62213 9.76846e-18
8725.51962 1.02463e-17
8727.41710 1.01129e-17
8729.31458 1.03736e-17
8731.20197 9.94640e-18
8733.09946 9.26484e-18
8734.99694 9.33837e-18
8736.89443 9.48355e-18
8738.79191 9.34239e-18
8740.68940 7.76660e-18
8742.58688 7.61261e-18
8744.48436 9.34271e-18
8746.38185 8.64022e-18
8748.27933 7.85781e-18
8750.17682 8.37149e-18
8752.07430 9.69766e-18
8753.97178 9.82553e-18
8755.86927 1.14639e-17
8757.76675 1.10545e-17
8759.65414 1.00413e-17
8761.55163 9.53842e-18
8763.44911 9.35571e-18
8765.34659 9.13024e-18
8767.24408 9.64077e-18
8769.14156 6.42210e-18
8771.03905 3.47239e-18
8772.93653 7.35272e-18
8774.83401 8.65900e-18
8776.73150 4.36225e-18
8778.62898 8.07514e-18
8780.52647 9.98561e-18
8782.42395 9.67715e-18
8784.32143 9.20707e-18
8786.21892 9.70695e-18
8788.10631 9.54600e-18
8790.00379 1.00932e-17
8791.90128 8.58543e-18
8793.79876 7.99440e-18
8795.69625 9.06116e-18
8797.59373 8.11657e-18
8799.49121 8.36208e-18
8801.38870 9.47218e-18
8803.28618 7.24312e-18
8805.18367 8.77874e-18
8807.08115 8.45705e-18
8808.97863 9.44585e-18
8810.87612 9.67289e-18
8812.77360 9.82307e-18
8814.67109 1.09119e-17
8816.56857 1.09577e-17
8818.46605 1.08430e-17
8820.35344 1.07282e-17
8822.25093 1.06130e-17
8824.14841 1.04976e-17
8826.04590 1.03820e-17
8827.94338 4.50180e-18
8829.84086 4.29179e-18
8831.73835 7.67899e-18
8833.63583 7.72415e-18
8835.53332 6.01661e-18
8837.43080 7.71625e-18
8839.32828 9.02452e-18
8841.22577 8.31643e-18
8843.12325 6.54169e-18
8845.02074 7.61262e-18
8846.91822 8.45642e-18
8848.80561 8.16084e-18
8850.70310 9.23408e-18
8852.60058 1.03456e-17
8854.49806 1.11121e-17
8856.39555 1.06732e-17
8858.29303 1.06410e-17
8860.19052 1.36494e-17
8862.08800 1.26823e-17
8863.98548 1.15209e-17
8865.88297 1.08958e-17
8867.78045 6.89881e-18
8869.67794 6.00555e-18
8871.57542 8.77023e-18
8873.47290 9.26794e-18
8875.37039 9.61711e-18
8877.25778 1.06478e-17
8879.15526 1.40045e-17
8881.05275 1.15745e-17
8882.95023 1.13372e-17
8884.84771 1.14891e-17
8886.74520 8.92348e-18
8888.64268 8.28397e-18
8890.54017 8.81754e-18
8892.43765 7.98903e-18
8894.33513 6.08706e-18
8896.23262 5.26084e-18
8898.13010 8.23250e-18
8900.02759 8.48998e-18
8901.92507 1.09629e-17
8903.82255 9.35471e-18
8905.72004 8.80844e-18
8907.60743 9.70383e-18
8909.50491 1.04418e-17
8911.40240 1.39809e-17
8913.29988 1.73794e-17
8915.19736 1.50429e-17
8917.09485 1.39457e-17
8918.99233 1.28416e-17
8920.88982 8.70127e-18
8922.78730 9.73666e-18
8924.68479 7.64741e-18
8926.58227 6.46098e-18
8928.47975 9.36216e-18
8930.37724 8.64698e-18
8932.27472 9.02137e-18
8934.17221 8.78850e-18
8936.05960 9.61174e-18
8937.95708 1.07141e-17
8939.85456 1.02590e-17
8941.75205 4.34160e-18
8943.64953 5.81824e-18
8945.54702 9.20184e-18
8947.44450 1.07004e-17
8949.34198 1.53975e-17
8951.23947 1.31061e-17
8953.13695 1.12316e-17
8955.03444 9.55682e-18
8956.93192 9.63619e-18
8958.82940 9.69610e-18
8960.72689 7.13311e-18
8962.62437 7.66798e-18
8964.52186 7.89236e-18
8966.40925 7.78040e-18
8968.30673 8.14493e-18
8970.20421 1.00125e-17
8972.10170 9.93248e-18
8973.99918 1.00527e-17
8975.89667 8.84780e-18
8977.79415 7.22203e-18
8979.69164 7.00387e-18
8981.58912 6.44633e-18
8983.48660 6.39881e-18
8985.38409 6.78226e-18
8987.28157 8.42879e-18
8989.17906 1.05815e-17
8991.07654 1.20829e-17
8992.97402 8.15164e-18
8994.87151 1.04749e-17
8996.75890 1.09476e-17
8998.65638 9.44331e-18
9000.55387 8.87981e-18
9002.45135 8.07050e-18
9004.34883 8.75749e-18
9006.24632 9.56499e-18
9008.14380 9.37062e-18
9010.04129 9.22048e-18
9011.93877 1.14900e-17
9013.83625 1.16823e-17
9015.73374 9.45629e-18
9017.63122 8.17932e-18
9019.52871 8.72262e-18
